# E (eV)   ldos(E)   pdos(E)    pdos(E)    pdos(E)   
 -0.342  0.410E-01  0.613E-03  0.202E-01  0.202E-01
 -0.242  0.397E-01  0.578E-03  0.196E-01  0.196E-01
 -0.142  0.399E-01  0.513E-03  0.197E-01  0.197E-01
 -0.042  0.455E-01  0.457E-03  0.225E-01  0.225E-01
  0.058  0.587E-01  0.420E-03  0.292E-01  0.292E-01
  0.158  0.519E-01  0.451E-03  0.257E-01  0.257E-01
  0.258  0.566E-01  0.526E-02  0.257E-01  0.257E-01
  0.358  0.593E-01  0.894E-02  0.252E-01  0.252E-01
  0.458  0.710E-01  0.123E-01  0.293E-01  0.293E-01
  0.558  0.769E-01  0.139E-01  0.315E-01  0.315E-01
  0.658  0.849E-01  0.157E-01  0.346E-01  0.346E-01
  0.758  0.953E-01  0.174E-01  0.389E-01  0.389E-01
  0.858  0.104E+00  0.188E-01  0.424E-01  0.424E-01
  0.958  0.991E-01  0.201E-01  0.395E-01  0.395E-01
  1.058  0.967E-01  0.218E-01  0.375E-01  0.375E-01
  1.158  0.996E-01  0.231E-01  0.382E-01  0.382E-01
  1.258  0.105E+00  0.241E-01  0.405E-01  0.405E-01
  1.358  0.100E+00  0.251E-01  0.375E-01  0.375E-01
  1.458  0.101E+00  0.261E-01  0.372E-01  0.372E-01
  1.558  0.101E+00  0.273E-01  0.370E-01  0.370E-01
  1.658  0.955E-01  0.283E-01  0.336E-01  0.336E-01
  1.758  0.938E-01  0.291E-01  0.323E-01  0.323E-01
  1.858  0.968E-01  0.301E-01  0.334E-01  0.334E-01
  1.958  0.101E+00  0.307E-01  0.349E-01  0.349E-01
  2.058  0.103E+00  0.318E-01  0.355E-01  0.355E-01
  2.158  0.107E+00  0.332E-01  0.370E-01  0.370E-01
  2.258  0.112E+00  0.348E-01  0.384E-01  0.384E-01
  2.358  0.117E+00  0.369E-01  0.402E-01  0.402E-01
  2.458  0.127E+00  0.405E-01  0.434E-01  0.434E-01
  2.558  0.137E+00  0.453E-01  0.460E-01  0.460E-01
  2.658  0.138E+00  0.456E-01  0.464E-01  0.464E-01
  2.758  0.132E+00  0.428E-01  0.446E-01  0.446E-01
  2.858  0.129E+00  0.421E-01  0.436E-01  0.436E-01
  2.958  0.131E+00  0.436E-01  0.435E-01  0.435E-01
  3.058  0.138E+00  0.467E-01  0.456E-01  0.456E-01
  3.158  0.141E+00  0.490E-01  0.463E-01  0.463E-01
  3.258  0.141E+00  0.461E-01  0.476E-01  0.476E-01
  3.358  0.148E+00  0.459E-01  0.510E-01  0.510E-01
  3.458  0.155E+00  0.490E-01  0.531E-01  0.531E-01
  3.558  0.160E+00  0.519E-01  0.541E-01  0.541E-01
  3.658  0.164E+00  0.565E-01  0.539E-01  0.539E-01
  3.758  0.160E+00  0.598E-01  0.503E-01  0.503E-01
  3.858  0.162E+00  0.631E-01  0.496E-01  0.496E-01
  3.958  0.171E+00  0.667E-01  0.519E-01  0.519E-01
  4.058  0.189E+00  0.733E-01  0.580E-01  0.580E-01
  4.158  0.182E+00  0.710E-01  0.555E-01  0.555E-01
  4.258  0.181E+00  0.706E-01  0.551E-01  0.551E-01
  4.358  0.188E+00  0.708E-01  0.586E-01  0.586E-01
  4.458  0.184E+00  0.702E-01  0.568E-01  0.568E-01
  4.558  0.196E+00  0.788E-01  0.587E-01  0.587E-01
  4.658  0.204E+00  0.830E-01  0.606E-01  0.606E-01
  4.758  0.219E+00  0.859E-01  0.666E-01  0.666E-01
  4.858  0.218E+00  0.810E-01  0.687E-01  0.687E-01
  4.958  0.218E+00  0.786E-01  0.696E-01  0.696E-01
  5.058  0.219E+00  0.763E-01  0.713E-01  0.713E-01
  5.158  0.221E+00  0.740E-01  0.737E-01  0.737E-01
  5.258  0.224E+00  0.697E-01  0.772E-01  0.772E-01
  5.358  0.239E+00  0.675E-01  0.855E-01  0.855E-01
  5.458  0.269E+00  0.709E-01  0.989E-01  0.989E-01
  5.558  0.289E+00  0.693E-01  0.110E+00  0.110E+00
  5.658  0.286E+00  0.671E-01  0.109E+00  0.109E+00
  5.758  0.267E+00  0.558E-01  0.106E+00  0.106E+00
  5.858  0.240E+00  0.574E-01  0.915E-01  0.915E-01
  5.958  0.219E+00  0.573E-01  0.807E-01  0.807E-01
  6.058  0.219E+00  0.620E-01  0.786E-01  0.786E-01
  6.158  0.206E+00  0.650E-01  0.703E-01  0.703E-01
  6.258  0.197E+00  0.655E-01  0.655E-01  0.655E-01
  6.358  0.185E+00  0.646E-01  0.603E-01  0.603E-01
  6.458  0.193E+00  0.787E-01  0.571E-01  0.571E-01
  6.558  0.193E+00  0.826E-01  0.552E-01  0.552E-01
  6.658  0.186E+00  0.807E-01  0.527E-01  0.527E-01
  6.758  0.181E+00  0.800E-01  0.506E-01  0.506E-01
  6.858  0.176E+00  0.796E-01  0.484E-01  0.484E-01
  6.958  0.171E+00  0.795E-01  0.459E-01  0.459E-01
  7.058  0.169E+00  0.798E-01  0.446E-01  0.446E-01
  7.158  0.167E+00  0.802E-01  0.433E-01  0.433E-01
  7.258  0.163E+00  0.791E-01  0.420E-01  0.420E-01
  7.358  0.159E+00  0.785E-01  0.402E-01  0.402E-01
  7.458  0.156E+00  0.785E-01  0.388E-01  0.388E-01
  7.558  0.153E+00  0.786E-01  0.373E-01  0.373E-01
  7.658  0.152E+00  0.784E-01  0.366E-01  0.366E-01
  7.758  0.148E+00  0.775E-01  0.351E-01  0.351E-01
  7.858  0.144E+00  0.748E-01  0.345E-01  0.345E-01
  7.958  0.135E+00  0.668E-01  0.341E-01  0.341E-01
  8.058  0.121E+00  0.622E-01  0.295E-01  0.295E-01
  8.158  0.101E+00  0.598E-01  0.207E-01  0.207E-01
  8.258  0.865E-01  0.569E-01  0.148E-01  0.148E-01
  8.358  0.710E-01  0.546E-01  0.822E-02  0.822E-02
  8.458  0.552E-01  0.531E-01  0.103E-02  0.103E-02
  8.558  0.532E-01  0.518E-01  0.716E-03  0.716E-03
  8.658  0.520E-01  0.506E-01  0.729E-03  0.729E-03
  8.758  0.513E-01  0.498E-01  0.743E-03  0.743E-03
  8.858  0.510E-01  0.495E-01  0.757E-03  0.757E-03
  8.958  0.502E-01  0.487E-01  0.770E-03  0.770E-03
  9.058  0.490E-01  0.475E-01  0.771E-03  0.771E-03
  9.158  0.483E-01  0.467E-01  0.785E-03  0.785E-03
  9.258  0.477E-01  0.461E-01  0.795E-03  0.795E-03
  9.358  0.486E-01  0.470E-01  0.822E-03  0.822E-03
  9.458  0.498E-01  0.480E-01  0.887E-03  0.887E-03
  9.558  0.512E-01  0.493E-01  0.963E-03  0.963E-03
  9.658  0.529E-01  0.508E-01  0.107E-02  0.107E-02
  9.758  0.554E-01  0.530E-01  0.120E-02  0.120E-02
  9.858  0.569E-01  0.543E-01  0.131E-02  0.131E-02
  9.958  0.578E-01  0.549E-01  0.146E-02  0.146E-02
 10.058  0.588E-01  0.555E-01  0.164E-02  0.164E-02
 10.158  0.591E-01  0.556E-01  0.174E-02  0.174E-02
