# E (eV)   ldos(E)   pdos(E)   
 -0.342  0.462E-01  0.462E-01
 -0.242  0.453E-01  0.453E-01
 -0.142  0.437E-01  0.437E-01
 -0.042  0.461E-01  0.461E-01
  0.058  0.454E-01  0.454E-01
  0.158  0.357E-01  0.357E-01
  0.258  0.343E-01  0.343E-01
  0.358  0.276E-01  0.276E-01
  0.458  0.299E-01  0.299E-01
  0.558  0.308E-01  0.308E-01
  0.658  0.337E-01  0.337E-01
  0.758  0.378E-01  0.378E-01
  0.858  0.403E-01  0.403E-01
  0.958  0.374E-01  0.374E-01
  1.058  0.348E-01  0.348E-01
  1.158  0.364E-01  0.364E-01
  1.258  0.392E-01  0.392E-01
  1.358  0.373E-01  0.373E-01
  1.458  0.381E-01  0.381E-01
  1.558  0.390E-01  0.390E-01
  1.658  0.337E-01  0.337E-01
  1.758  0.322E-01  0.322E-01
  1.858  0.310E-01  0.310E-01
  1.958  0.301E-01  0.301E-01
  2.058  0.293E-01  0.293E-01
  2.158  0.289E-01  0.289E-01
  2.258  0.287E-01  0.287E-01
  2.358  0.286E-01  0.286E-01
  2.458  0.289E-01  0.289E-01
  2.558  0.297E-01  0.297E-01
  2.658  0.289E-01  0.289E-01
  2.758  0.264E-01  0.264E-01
  2.858  0.248E-01  0.248E-01
  2.958  0.240E-01  0.240E-01
  3.058  0.252E-01  0.252E-01
  3.158  0.255E-01  0.255E-01
  3.258  0.262E-01  0.262E-01
  3.358  0.277E-01  0.277E-01
  3.458  0.281E-01  0.281E-01
  3.558  0.273E-01  0.273E-01
  3.658  0.263E-01  0.263E-01
  3.758  0.249E-01  0.249E-01
  3.858  0.242E-01  0.242E-01
  3.958  0.245E-01  0.245E-01
  4.058  0.256E-01  0.256E-01
  4.158  0.238E-01  0.238E-01
  4.258  0.236E-01  0.236E-01
  4.358  0.240E-01  0.240E-01
  4.458  0.229E-01  0.229E-01
  4.558  0.231E-01  0.231E-01
  4.658  0.223E-01  0.223E-01
  4.758  0.227E-01  0.227E-01
  4.858  0.222E-01  0.222E-01
  4.958  0.214E-01  0.214E-01
  5.058  0.207E-01  0.207E-01
  5.158  0.200E-01  0.200E-01
  5.258  0.192E-01  0.192E-01
  5.358  0.186E-01  0.186E-01
  5.458  0.177E-01  0.177E-01
  5.558  0.167E-01  0.167E-01
  5.658  0.158E-01  0.158E-01
  5.758  0.139E-01  0.139E-01
  5.858  0.128E-01  0.128E-01
  5.958  0.117E-01  0.117E-01
  6.058  0.108E-01  0.108E-01
  6.158  0.984E-02  0.984E-02
  6.258  0.907E-02  0.907E-02
  6.358  0.830E-02  0.830E-02
  6.458  0.768E-02  0.768E-02
  6.558  0.710E-02  0.710E-02
  6.658  0.654E-02  0.654E-02
  6.758  0.600E-02  0.600E-02
  6.858  0.548E-02  0.548E-02
  6.958  0.497E-02  0.497E-02
  7.058  0.448E-02  0.448E-02
  7.158  0.403E-02  0.403E-02
  7.258  0.361E-02  0.361E-02
  7.358  0.321E-02  0.321E-02
  7.458  0.284E-02  0.284E-02
  7.558  0.246E-02  0.246E-02
  7.658  0.210E-02  0.210E-02
  7.758  0.174E-02  0.174E-02
  7.858  0.142E-02  0.142E-02
  7.958  0.112E-02  0.112E-02
  8.058  0.860E-03  0.860E-03
  8.158  0.667E-03  0.667E-03
  8.258  0.501E-03  0.501E-03
  8.358  0.397E-03  0.397E-03
  8.458  0.354E-03  0.354E-03
  8.558  0.332E-03  0.332E-03
  8.658  0.313E-03  0.313E-03
  8.758  0.299E-03  0.299E-03
  8.858  0.287E-03  0.287E-03
  8.958  0.277E-03  0.277E-03
  9.058  0.269E-03  0.269E-03
  9.158  0.269E-03  0.269E-03
  9.258  0.360E-03  0.360E-03
  9.358  0.176E-02  0.176E-02
  9.458  0.317E-02  0.317E-02
  9.558  0.404E-02  0.404E-02
  9.658  0.493E-02  0.493E-02
  9.758  0.572E-02  0.572E-02
  9.858  0.611E-02  0.611E-02
  9.958  0.656E-02  0.656E-02
 10.058  0.710E-02  0.710E-02
 10.158  0.701E-02  0.701E-02
