# E (eV)   ldos(E)   pdos(E)   
  -5.983  0.525E-04  0.525E-04
  -5.973  0.816E-04  0.816E-04
  -5.963  0.126E-03  0.126E-03
  -5.953  0.191E-03  0.191E-03
  -5.943  0.288E-03  0.288E-03
  -5.933  0.430E-03  0.430E-03
  -5.923  0.634E-03  0.634E-03
  -5.913  0.926E-03  0.926E-03
  -5.903  0.134E-02  0.134E-02
  -5.893  0.191E-02  0.191E-02
  -5.883  0.271E-02  0.271E-02
  -5.873  0.379E-02  0.379E-02
  -5.863  0.525E-02  0.525E-02
  -5.853  0.719E-02  0.719E-02
  -5.843  0.976E-02  0.976E-02
  -5.833  0.131E-01  0.131E-01
  -5.823  0.174E-01  0.174E-01
  -5.813  0.229E-01  0.229E-01
  -5.803  0.298E-01  0.298E-01
  -5.793  0.383E-01  0.383E-01
  -5.783  0.489E-01  0.489E-01
  -5.773  0.616E-01  0.616E-01
  -5.763  0.769E-01  0.769E-01
  -5.753  0.951E-01  0.951E-01
  -5.743  0.116E+00  0.116E+00
  -5.733  0.141E+00  0.141E+00
  -5.723  0.169E+00  0.169E+00
  -5.713  0.200E+00  0.200E+00
  -5.703  0.235E+00  0.235E+00
  -5.693  0.273E+00  0.273E+00
  -5.683  0.315E+00  0.315E+00
  -5.673  0.359E+00  0.359E+00
  -5.663  0.406E+00  0.406E+00
  -5.653  0.454E+00  0.454E+00
  -5.643  0.503E+00  0.503E+00
  -5.633  0.552E+00  0.552E+00
  -5.623  0.600E+00  0.600E+00
  -5.613  0.646E+00  0.646E+00
  -5.603  0.690E+00  0.690E+00
  -5.593  0.731E+00  0.731E+00
  -5.583  0.767E+00  0.767E+00
  -5.573  0.799E+00  0.799E+00
  -5.563  0.825E+00  0.825E+00
  -5.553  0.845E+00  0.845E+00
  -5.543  0.859E+00  0.859E+00
  -5.533  0.868E+00  0.868E+00
  -5.523  0.870E+00  0.870E+00
  -5.513  0.866E+00  0.866E+00
  -5.503  0.857E+00  0.857E+00
  -5.493  0.844E+00  0.844E+00
  -5.483  0.826E+00  0.826E+00
  -5.473  0.804E+00  0.804E+00
  -5.463  0.779E+00  0.779E+00
  -5.453  0.752E+00  0.752E+00
  -5.443  0.724E+00  0.724E+00
  -5.433  0.694E+00  0.694E+00
  -5.423  0.665E+00  0.665E+00
  -5.413  0.636E+00  0.636E+00
  -5.403  0.607E+00  0.607E+00
  -5.393  0.580E+00  0.580E+00
  -5.383  0.555E+00  0.555E+00
  -5.373  0.532E+00  0.532E+00
  -5.363  0.511E+00  0.511E+00
  -5.353  0.492E+00  0.492E+00
  -5.343  0.475E+00  0.475E+00
  -5.333  0.461E+00  0.461E+00
  -5.323  0.448E+00  0.448E+00
  -5.313  0.437E+00  0.437E+00
  -5.303  0.427E+00  0.427E+00
  -5.293  0.418E+00  0.418E+00
  -5.283  0.409E+00  0.409E+00
  -5.273  0.401E+00  0.401E+00
  -5.263  0.392E+00  0.392E+00
  -5.253  0.382E+00  0.382E+00
  -5.243  0.372E+00  0.372E+00
  -5.233  0.362E+00  0.362E+00
  -5.223  0.350E+00  0.350E+00
  -5.213  0.338E+00  0.338E+00
  -5.203  0.325E+00  0.325E+00
  -5.193  0.312E+00  0.312E+00
  -5.183  0.300E+00  0.300E+00
  -5.173  0.288E+00  0.288E+00
  -5.163  0.277E+00  0.277E+00
  -5.153  0.268E+00  0.268E+00
  -5.143  0.260E+00  0.260E+00
  -5.133  0.254E+00  0.254E+00
  -5.123  0.251E+00  0.251E+00
  -5.113  0.249E+00  0.249E+00
  -5.103  0.250E+00  0.250E+00
  -5.093  0.252E+00  0.252E+00
  -5.083  0.257E+00  0.257E+00
  -5.073  0.262E+00  0.262E+00
  -5.063  0.268E+00  0.268E+00
  -5.053  0.275E+00  0.275E+00
  -5.043  0.281E+00  0.281E+00
  -5.033  0.286E+00  0.286E+00
  -5.023  0.291E+00  0.291E+00
  -5.013  0.293E+00  0.293E+00
  -5.003  0.294E+00  0.294E+00
  -4.993  0.293E+00  0.293E+00
  -4.983  0.289E+00  0.289E+00
  -4.973  0.283E+00  0.283E+00
  -4.963  0.274E+00  0.274E+00
  -4.953  0.264E+00  0.264E+00
  -4.943  0.252E+00  0.252E+00
  -4.933  0.239E+00  0.239E+00
  -4.923  0.224E+00  0.224E+00
  -4.913  0.209E+00  0.209E+00
  -4.903  0.195E+00  0.195E+00
  -4.893  0.181E+00  0.181E+00
  -4.883  0.168E+00  0.168E+00
  -4.873  0.157E+00  0.157E+00
  -4.863  0.147E+00  0.147E+00
  -4.853  0.140E+00  0.140E+00
  -4.843  0.135E+00  0.135E+00
  -4.833  0.132E+00  0.132E+00
  -4.823  0.133E+00  0.133E+00
  -4.813  0.135E+00  0.135E+00
  -4.803  0.141E+00  0.141E+00
  -4.793  0.148E+00  0.148E+00
  -4.783  0.158E+00  0.158E+00
  -4.773  0.168E+00  0.168E+00
  -4.763  0.181E+00  0.181E+00
  -4.753  0.193E+00  0.193E+00
  -4.743  0.206E+00  0.206E+00
  -4.733  0.219E+00  0.219E+00
  -4.723  0.230E+00  0.230E+00
  -4.713  0.241E+00  0.241E+00
  -4.703  0.250E+00  0.250E+00
  -4.693  0.256E+00  0.256E+00
  -4.683  0.260E+00  0.260E+00
  -4.673  0.262E+00  0.262E+00
  -4.663  0.261E+00  0.261E+00
  -4.653  0.257E+00  0.257E+00
  -4.643  0.251E+00  0.251E+00
  -4.633  0.242E+00  0.242E+00
  -4.623  0.231E+00  0.231E+00
  -4.613  0.219E+00  0.219E+00
  -4.603  0.204E+00  0.204E+00
  -4.593  0.189E+00  0.189E+00
  -4.583  0.174E+00  0.174E+00
  -4.573  0.158E+00  0.158E+00
  -4.563  0.142E+00  0.142E+00
  -4.553  0.127E+00  0.127E+00
  -4.543  0.114E+00  0.114E+00
  -4.533  0.101E+00  0.101E+00
  -4.523  0.899E-01  0.899E-01
  -4.513  0.805E-01  0.805E-01
  -4.503  0.731E-01  0.731E-01
  -4.493  0.677E-01  0.677E-01
  -4.483  0.643E-01  0.643E-01
  -4.473  0.632E-01  0.632E-01
  -4.463  0.642E-01  0.642E-01
  -4.453  0.673E-01  0.673E-01
  -4.443  0.724E-01  0.724E-01
  -4.433  0.795E-01  0.795E-01
  -4.423  0.884E-01  0.884E-01
  -4.413  0.990E-01  0.990E-01
  -4.403  0.111E+00  0.111E+00
  -4.393  0.124E+00  0.124E+00
  -4.383  0.138E+00  0.138E+00
  -4.373  0.153E+00  0.153E+00
  -4.363  0.167E+00  0.167E+00
  -4.353  0.182E+00  0.182E+00
  -4.343  0.195E+00  0.195E+00
  -4.333  0.208E+00  0.208E+00
  -4.323  0.219E+00  0.219E+00
  -4.313  0.229E+00  0.229E+00
  -4.303  0.236E+00  0.236E+00
  -4.293  0.241E+00  0.241E+00
  -4.283  0.243E+00  0.243E+00
  -4.273  0.243E+00  0.243E+00
  -4.263  0.240E+00  0.240E+00
  -4.253  0.235E+00  0.235E+00
  -4.243  0.227E+00  0.227E+00
  -4.233  0.217E+00  0.217E+00
  -4.223  0.206E+00  0.206E+00
  -4.213  0.193E+00  0.193E+00
  -4.203  0.179E+00  0.179E+00
  -4.193  0.164E+00  0.164E+00
  -4.183  0.149E+00  0.149E+00
  -4.173  0.133E+00  0.133E+00
  -4.163  0.118E+00  0.118E+00
  -4.153  0.104E+00  0.104E+00
  -4.143  0.908E-01  0.908E-01
  -4.133  0.785E-01  0.785E-01
  -4.123  0.673E-01  0.673E-01
  -4.113  0.574E-01  0.574E-01
  -4.103  0.490E-01  0.490E-01
  -4.093  0.419E-01  0.419E-01
  -4.083  0.362E-01  0.362E-01
  -4.073  0.320E-01  0.320E-01
  -4.063  0.292E-01  0.292E-01
  -4.053  0.278E-01  0.278E-01
  -4.043  0.278E-01  0.278E-01
  -4.033  0.292E-01  0.292E-01
  -4.023  0.320E-01  0.320E-01
  -4.013  0.361E-01  0.361E-01
  -4.003  0.417E-01  0.417E-01
  -3.993  0.486E-01  0.486E-01
  -3.983  0.569E-01  0.569E-01
  -3.973  0.665E-01  0.665E-01
  -3.963  0.773E-01  0.773E-01
  -3.953  0.892E-01  0.892E-01
  -3.943  0.102E+00  0.102E+00
  -3.933  0.116E+00  0.116E+00
  -3.923  0.130E+00  0.130E+00
  -3.913  0.144E+00  0.144E+00
  -3.903  0.158E+00  0.158E+00
  -3.893  0.172E+00  0.172E+00
  -3.883  0.185E+00  0.185E+00
  -3.873  0.197E+00  0.197E+00
  -3.863  0.208E+00  0.208E+00
  -3.853  0.216E+00  0.216E+00
  -3.843  0.223E+00  0.223E+00
  -3.833  0.227E+00  0.227E+00
  -3.823  0.229E+00  0.229E+00
  -3.813  0.229E+00  0.229E+00
  -3.803  0.226E+00  0.226E+00
  -3.793  0.221E+00  0.221E+00
  -3.783  0.213E+00  0.213E+00
  -3.773  0.204E+00  0.204E+00
  -3.763  0.192E+00  0.192E+00
  -3.753  0.180E+00  0.180E+00
  -3.743  0.166E+00  0.166E+00
  -3.733  0.152E+00  0.152E+00
  -3.723  0.138E+00  0.138E+00
  -3.713  0.123E+00  0.123E+00
  -3.703  0.109E+00  0.109E+00
  -3.693  0.959E-01  0.959E-01
  -3.683  0.832E-01  0.832E-01
  -3.673  0.714E-01  0.714E-01
  -3.663  0.606E-01  0.606E-01
  -3.653  0.510E-01  0.510E-01
  -3.643  0.425E-01  0.425E-01
  -3.633  0.351E-01  0.351E-01
  -3.623  0.289E-01  0.289E-01
  -3.613  0.236E-01  0.236E-01
  -3.603  0.194E-01  0.194E-01
  -3.593  0.161E-01  0.161E-01
  -3.583  0.137E-01  0.137E-01
  -3.573  0.121E-01  0.121E-01
  -3.563  0.114E-01  0.114E-01
  -3.553  0.114E-01  0.114E-01
  -3.543  0.121E-01  0.121E-01
  -3.533  0.137E-01  0.137E-01
  -3.523  0.161E-01  0.161E-01
  -3.513  0.194E-01  0.194E-01
  -3.503  0.235E-01  0.235E-01
  -3.493  0.287E-01  0.287E-01
  -3.483  0.348E-01  0.348E-01
  -3.473  0.421E-01  0.421E-01
  -3.463  0.504E-01  0.504E-01
  -3.453  0.598E-01  0.598E-01
  -3.443  0.702E-01  0.702E-01
  -3.433  0.816E-01  0.816E-01
  -3.423  0.939E-01  0.939E-01
  -3.413  0.107E+00  0.107E+00
  -3.403  0.120E+00  0.120E+00
  -3.393  0.134E+00  0.134E+00
  -3.383  0.148E+00  0.148E+00
  -3.373  0.161E+00  0.161E+00
  -3.363  0.174E+00  0.174E+00
  -3.353  0.186E+00  0.186E+00
  -3.343  0.196E+00  0.196E+00
  -3.333  0.205E+00  0.205E+00
  -3.323  0.211E+00  0.211E+00
  -3.313  0.216E+00  0.216E+00
  -3.303  0.218E+00  0.218E+00
  -3.293  0.218E+00  0.218E+00
  -3.283  0.216E+00  0.216E+00
  -3.273  0.212E+00  0.212E+00
  -3.263  0.205E+00  0.205E+00
  -3.253  0.196E+00  0.196E+00
  -3.243  0.186E+00  0.186E+00
  -3.233  0.174E+00  0.174E+00
  -3.223  0.162E+00  0.162E+00
  -3.213  0.148E+00  0.148E+00
  -3.203  0.135E+00  0.135E+00
  -3.193  0.121E+00  0.121E+00
  -3.183  0.107E+00  0.107E+00
  -3.173  0.942E-01  0.942E-01
  -3.163  0.819E-01  0.819E-01
  -3.153  0.704E-01  0.704E-01
  -3.143  0.599E-01  0.599E-01
  -3.133  0.504E-01  0.504E-01
  -3.123  0.420E-01  0.420E-01
  -3.113  0.346E-01  0.346E-01
  -3.103  0.282E-01  0.282E-01
  -3.093  0.228E-01  0.228E-01
  -3.083  0.182E-01  0.182E-01
  -3.073  0.145E-01  0.145E-01
  -3.063  0.114E-01  0.114E-01
  -3.053  0.902E-02  0.902E-02
  -3.043  0.719E-02  0.719E-02
  -3.033  0.585E-02  0.585E-02
  -3.023  0.496E-02  0.496E-02
  -3.013  0.449E-02  0.449E-02
  -3.003  0.441E-02  0.441E-02
  -2.993  0.472E-02  0.472E-02
  -2.983  0.543E-02  0.543E-02
  -2.973  0.658E-02  0.658E-02
  -2.963  0.819E-02  0.819E-02
  -2.953  0.103E-01  0.103E-01
  -2.943  0.131E-01  0.131E-01
  -2.933  0.165E-01  0.165E-01
  -2.923  0.206E-01  0.206E-01
  -2.913  0.256E-01  0.256E-01
  -2.903  0.315E-01  0.315E-01
  -2.893  0.383E-01  0.383E-01
  -2.883  0.462E-01  0.462E-01
  -2.873  0.550E-01  0.550E-01
  -2.863  0.649E-01  0.649E-01
  -2.853  0.757E-01  0.757E-01
  -2.843  0.873E-01  0.873E-01
  -2.833  0.997E-01  0.997E-01
  -2.823  0.113E+00  0.113E+00
  -2.813  0.126E+00  0.126E+00
  -2.803  0.139E+00  0.139E+00
  -2.793  0.152E+00  0.152E+00
  -2.783  0.164E+00  0.164E+00
  -2.773  0.176E+00  0.176E+00
  -2.763  0.186E+00  0.186E+00
  -2.753  0.195E+00  0.195E+00
  -2.743  0.202E+00  0.202E+00
  -2.733  0.207E+00  0.207E+00
  -2.723  0.210E+00  0.210E+00
  -2.713  0.210E+00  0.210E+00
  -2.703  0.209E+00  0.209E+00
  -2.693  0.205E+00  0.205E+00
  -2.683  0.199E+00  0.199E+00
  -2.673  0.191E+00  0.191E+00
  -2.663  0.181E+00  0.181E+00
  -2.653  0.170E+00  0.170E+00
  -2.643  0.158E+00  0.158E+00
  -2.633  0.146E+00  0.146E+00
  -2.623  0.133E+00  0.133E+00
  -2.613  0.119E+00  0.119E+00
  -2.603  0.106E+00  0.106E+00
  -2.593  0.935E-01  0.935E-01
  -2.583  0.815E-01  0.815E-01
  -2.573  0.703E-01  0.703E-01
  -2.563  0.599E-01  0.599E-01
  -2.553  0.505E-01  0.505E-01
  -2.543  0.422E-01  0.422E-01
  -2.533  0.348E-01  0.348E-01
  -2.523  0.284E-01  0.284E-01
  -2.513  0.230E-01  0.230E-01
  -2.503  0.184E-01  0.184E-01
  -2.493  0.145E-01  0.145E-01
  -2.483  0.114E-01  0.114E-01
  -2.473  0.883E-02  0.883E-02
  -2.463  0.679E-02  0.679E-02
  -2.453  0.519E-02  0.519E-02
  -2.443  0.396E-02  0.396E-02
  -2.433  0.304E-02  0.304E-02
  -2.423  0.239E-02  0.239E-02
  -2.413  0.196E-02  0.196E-02
  -2.403  0.174E-02  0.174E-02
  -2.393  0.170E-02  0.170E-02
  -2.383  0.184E-02  0.184E-02
  -2.373  0.218E-02  0.218E-02
  -2.363  0.273E-02  0.273E-02
  -2.353  0.353E-02  0.353E-02
  -2.343  0.461E-02  0.461E-02
  -2.333  0.603E-02  0.603E-02
  -2.323  0.786E-02  0.786E-02
  -2.313  0.102E-01  0.102E-01
  -2.303  0.130E-01  0.130E-01
  -2.293  0.165E-01  0.165E-01
  -2.283  0.207E-01  0.207E-01
  -2.273  0.257E-01  0.257E-01
  -2.263  0.316E-01  0.316E-01
  -2.253  0.384E-01  0.384E-01
  -2.243  0.462E-01  0.462E-01
  -2.233  0.549E-01  0.549E-01
  -2.223  0.647E-01  0.647E-01
  -2.213  0.753E-01  0.753E-01
  -2.203  0.867E-01  0.867E-01
  -2.193  0.987E-01  0.987E-01
  -2.183  0.111E+00  0.111E+00
  -2.173  0.124E+00  0.124E+00
  -2.163  0.137E+00  0.137E+00
  -2.153  0.149E+00  0.149E+00
  -2.143  0.161E+00  0.161E+00
  -2.133  0.172E+00  0.172E+00
  -2.123  0.182E+00  0.182E+00
  -2.113  0.190E+00  0.190E+00
  -2.103  0.196E+00  0.196E+00
  -2.093  0.201E+00  0.201E+00
  -2.083  0.203E+00  0.203E+00
  -2.073  0.203E+00  0.203E+00
  -2.063  0.201E+00  0.201E+00
  -2.053  0.197E+00  0.197E+00
  -2.043  0.191E+00  0.191E+00
  -2.033  0.183E+00  0.183E+00
  -2.023  0.173E+00  0.173E+00
  -2.013  0.163E+00  0.163E+00
  -2.003  0.151E+00  0.151E+00
  -1.993  0.138E+00  0.138E+00
  -1.983  0.126E+00  0.126E+00
  -1.973  0.113E+00  0.113E+00
  -1.963  0.100E+00  0.100E+00
  -1.953  0.882E-01  0.882E-01
  -1.943  0.767E-01  0.767E-01
  -1.933  0.660E-01  0.660E-01
  -1.923  0.561E-01  0.561E-01
  -1.913  0.473E-01  0.473E-01
  -1.903  0.394E-01  0.394E-01
  -1.893  0.324E-01  0.324E-01
  -1.883  0.264E-01  0.264E-01
  -1.873  0.213E-01  0.213E-01
  -1.863  0.170E-01  0.170E-01
  -1.853  0.134E-01  0.134E-01
  -1.843  0.105E-01  0.105E-01
  -1.833  0.808E-02  0.808E-02
  -1.823  0.618E-02  0.618E-02
  -1.813  0.468E-02  0.468E-02
  -1.803  0.350E-02  0.350E-02
  -1.793  0.261E-02  0.261E-02
  -1.783  0.193E-02  0.193E-02
  -1.773  0.143E-02  0.143E-02
  -1.763  0.108E-02  0.108E-02
  -1.753  0.846E-03  0.846E-03
  -1.743  0.711E-03  0.711E-03
  -1.733  0.666E-03  0.666E-03
  -1.723  0.707E-03  0.707E-03
  -1.713  0.836E-03  0.836E-03
  -1.703  0.106E-02  0.106E-02
  -1.693  0.141E-02  0.141E-02
  -1.683  0.190E-02  0.190E-02
  -1.673  0.256E-02  0.256E-02
  -1.663  0.344E-02  0.344E-02
  -1.653  0.458E-02  0.458E-02
  -1.643  0.605E-02  0.605E-02
  -1.633  0.792E-02  0.792E-02
  -1.623  0.102E-01  0.102E-01
  -1.613  0.131E-01  0.131E-01
  -1.603  0.166E-01  0.166E-01
  -1.593  0.208E-01  0.208E-01
  -1.583  0.258E-01  0.258E-01
  -1.573  0.317E-01  0.317E-01
  -1.563  0.384E-01  0.384E-01
  -1.553  0.461E-01  0.461E-01
  -1.543  0.548E-01  0.548E-01
  -1.533  0.643E-01  0.643E-01
  -1.523  0.748E-01  0.748E-01
  -1.513  0.860E-01  0.860E-01
  -1.503  0.977E-01  0.977E-01
  -1.493  0.110E+00  0.110E+00
  -1.483  0.122E+00  0.122E+00
  -1.473  0.135E+00  0.135E+00
  -1.463  0.147E+00  0.147E+00
  -1.453  0.158E+00  0.158E+00
  -1.443  0.168E+00  0.168E+00
  -1.433  0.178E+00  0.178E+00
  -1.423  0.185E+00  0.185E+00
  -1.413  0.191E+00  0.191E+00
  -1.403  0.195E+00  0.195E+00
  -1.393  0.197E+00  0.197E+00
  -1.383  0.197E+00  0.197E+00
  -1.373  0.194E+00  0.194E+00
  -1.363  0.190E+00  0.190E+00
  -1.353  0.184E+00  0.184E+00
  -1.343  0.176E+00  0.176E+00
  -1.333  0.166E+00  0.166E+00
  -1.323  0.156E+00  0.156E+00
  -1.313  0.144E+00  0.144E+00
  -1.303  0.132E+00  0.132E+00
  -1.293  0.120E+00  0.120E+00
  -1.283  0.107E+00  0.107E+00
  -1.273  0.953E-01  0.953E-01
  -1.263  0.836E-01  0.836E-01
  -1.253  0.726E-01  0.726E-01
  -1.243  0.623E-01  0.623E-01
  -1.233  0.530E-01  0.530E-01
  -1.223  0.445E-01  0.445E-01
  -1.213  0.370E-01  0.370E-01
  -1.203  0.304E-01  0.304E-01
  -1.193  0.247E-01  0.247E-01
  -1.183  0.199E-01  0.199E-01
  -1.173  0.159E-01  0.159E-01
  -1.163  0.125E-01  0.125E-01
  -1.153  0.973E-02  0.973E-02
  -1.143  0.750E-02  0.750E-02
  -1.133  0.572E-02  0.572E-02
  -1.123  0.431E-02  0.431E-02
  -1.113  0.322E-02  0.322E-02
  -1.103  0.238E-02  0.238E-02
  -1.093  0.174E-02  0.174E-02
  -1.083  0.126E-02  0.126E-02
  -1.073  0.912E-03  0.912E-03
  -1.063  0.659E-03  0.659E-03
  -1.053  0.483E-03  0.483E-03
  -1.043  0.367E-03  0.367E-03
  -1.033  0.302E-03  0.302E-03
  -1.023  0.280E-03  0.280E-03
  -1.013  0.299E-03  0.299E-03
  -1.003  0.361E-03  0.361E-03
  -0.993  0.471E-03  0.471E-03
  -0.983  0.642E-03  0.642E-03
  -0.973  0.887E-03  0.887E-03
  -0.963  0.123E-02  0.123E-02
  -0.953  0.169E-02  0.169E-02
  -0.943  0.231E-02  0.231E-02
  -0.933  0.313E-02  0.313E-02
  -0.923  0.419E-02  0.419E-02
  -0.913  0.555E-02  0.555E-02
  -0.903  0.728E-02  0.728E-02
  -0.893  0.945E-02  0.945E-02
  -0.883  0.121E-01  0.121E-01
  -0.873  0.154E-01  0.154E-01
  -0.863  0.193E-01  0.193E-01
  -0.853  0.240E-01  0.240E-01
  -0.843  0.295E-01  0.295E-01
  -0.833  0.359E-01  0.359E-01
  -0.823  0.432E-01  0.432E-01
  -0.813  0.514E-01  0.514E-01
  -0.803  0.605E-01  0.605E-01
  -0.793  0.705E-01  0.705E-01
  -0.783  0.812E-01  0.812E-01
  -0.773  0.925E-01  0.925E-01
  -0.763  0.104E+00  0.104E+00
  -0.753  0.116E+00  0.116E+00
  -0.743  0.128E+00  0.128E+00
  -0.733  0.140E+00  0.140E+00
  -0.723  0.151E+00  0.151E+00
  -0.713  0.161E+00  0.161E+00
  -0.703  0.171E+00  0.171E+00
  -0.693  0.178E+00  0.178E+00
  -0.683  0.184E+00  0.184E+00
  -0.673  0.189E+00  0.189E+00
  -0.663  0.191E+00  0.191E+00
  -0.653  0.191E+00  0.191E+00
  -0.643  0.189E+00  0.189E+00
  -0.633  0.185E+00  0.185E+00
  -0.623  0.180E+00  0.180E+00
  -0.613  0.172E+00  0.172E+00
  -0.603  0.163E+00  0.163E+00
  -0.593  0.153E+00  0.153E+00
  -0.583  0.142E+00  0.142E+00
  -0.573  0.131E+00  0.131E+00
  -0.563  0.119E+00  0.119E+00
  -0.553  0.107E+00  0.107E+00
  -0.543  0.947E-01  0.947E-01
  -0.533  0.833E-01  0.833E-01
  -0.523  0.725E-01  0.725E-01
  -0.513  0.624E-01  0.624E-01
  -0.503  0.531E-01  0.531E-01
  -0.493  0.447E-01  0.447E-01
  -0.483  0.372E-01  0.372E-01
  -0.473  0.307E-01  0.307E-01
  -0.463  0.250E-01  0.250E-01
  -0.453  0.202E-01  0.202E-01
  -0.443  0.161E-01  0.161E-01
  -0.433  0.127E-01  0.127E-01
  -0.423  0.992E-02  0.992E-02
  -0.413  0.766E-02  0.766E-02
  -0.403  0.586E-02  0.586E-02
  -0.393  0.443E-02  0.443E-02
  -0.383  0.331E-02  0.331E-02
  -0.373  0.245E-02  0.245E-02
  -0.363  0.179E-02  0.179E-02
  -0.353  0.130E-02  0.130E-02
  -0.343  0.932E-03  0.932E-03
  -0.333  0.662E-03  0.662E-03
  -0.323  0.468E-03  0.468E-03
  -0.313  0.331E-03  0.331E-03
  -0.303  0.237E-03  0.237E-03
  -0.293  0.176E-03  0.176E-03
  -0.283  0.142E-03  0.142E-03
  -0.273  0.131E-03  0.131E-03
  -0.263  0.141E-03  0.141E-03
  -0.253  0.174E-03  0.174E-03
  -0.243  0.232E-03  0.232E-03
  -0.233  0.324E-03  0.324E-03
  -0.223  0.457E-03  0.457E-03
  -0.213  0.646E-03  0.646E-03
  -0.203  0.909E-03  0.909E-03
  -0.193  0.127E-02  0.127E-02
  -0.183  0.175E-02  0.175E-02
  -0.173  0.239E-02  0.239E-02
  -0.163  0.323E-02  0.323E-02
  -0.153  0.431E-02  0.431E-02
  -0.143  0.570E-02  0.570E-02
  -0.133  0.746E-02  0.746E-02
  -0.123  0.966E-02  0.966E-02
  -0.113  0.124E-01  0.124E-01
  -0.103  0.157E-01  0.157E-01
  -0.093  0.196E-01  0.196E-01
  -0.083  0.243E-01  0.243E-01
  -0.073  0.298E-01  0.298E-01
  -0.063  0.362E-01  0.362E-01
  -0.053  0.434E-01  0.434E-01
  -0.043  0.516E-01  0.516E-01
  -0.033  0.605E-01  0.605E-01
  -0.023  0.703E-01  0.703E-01
  -0.013  0.808E-01  0.808E-01
  -0.003  0.919E-01  0.919E-01
   0.007  0.103E+00  0.103E+00
   0.017  0.115E+00  0.115E+00
   0.027  0.127E+00  0.127E+00
   0.037  0.138E+00  0.138E+00
   0.047  0.148E+00  0.148E+00
   0.057  0.158E+00  0.158E+00
   0.067  0.167E+00  0.167E+00
   0.077  0.174E+00  0.174E+00
   0.087  0.179E+00  0.179E+00
   0.097  0.183E+00  0.183E+00
   0.107  0.185E+00  0.185E+00
   0.117  0.185E+00  0.185E+00
   0.127  0.182E+00  0.182E+00
   0.137  0.178E+00  0.178E+00
   0.147  0.172E+00  0.172E+00
   0.157  0.165E+00  0.165E+00
   0.167  0.156E+00  0.156E+00
   0.177  0.146E+00  0.146E+00
   0.187  0.135E+00  0.135E+00
   0.197  0.124E+00  0.124E+00
   0.207  0.112E+00  0.112E+00
   0.217  0.101E+00  0.101E+00
   0.227  0.892E-01  0.892E-01
   0.237  0.783E-01  0.783E-01
   0.247  0.679E-01  0.679E-01
   0.257  0.583E-01  0.583E-01
   0.267  0.495E-01  0.495E-01
   0.277  0.416E-01  0.416E-01
   0.287  0.346E-01  0.346E-01
   0.297  0.284E-01  0.284E-01
   0.307  0.231E-01  0.231E-01
   0.317  0.186E-01  0.186E-01
   0.327  0.148E-01  0.148E-01
   0.337  0.117E-01  0.117E-01
   0.347  0.908E-02  0.908E-02
   0.357  0.700E-02  0.700E-02
   0.367  0.534E-02  0.534E-02
   0.377  0.402E-02  0.402E-02
   0.387  0.300E-02  0.300E-02
   0.397  0.222E-02  0.222E-02
   0.407  0.162E-02  0.162E-02
   0.417  0.117E-02  0.117E-02
   0.427  0.835E-03  0.835E-03
   0.437  0.591E-03  0.591E-03
   0.447  0.414E-03  0.414E-03
   0.457  0.289E-03  0.289E-03
   0.467  0.201E-03  0.201E-03
   0.477  0.141E-03  0.141E-03
   0.487  0.102E-03  0.102E-03
   0.497  0.800E-04  0.800E-04
   0.507  0.715E-04  0.715E-04
   0.517  0.755E-04  0.755E-04
   0.527  0.926E-04  0.926E-04
   0.537  0.125E-03  0.125E-03
   0.547  0.176E-03  0.176E-03
   0.557  0.253E-03  0.253E-03
   0.567  0.364E-03  0.364E-03
   0.577  0.520E-03  0.520E-03
   0.587  0.736E-03  0.736E-03
   0.597  0.103E-02  0.103E-02
   0.607  0.143E-02  0.143E-02
   0.617  0.197E-02  0.197E-02
   0.627  0.267E-02  0.267E-02
   0.637  0.359E-02  0.359E-02
   0.647  0.478E-02  0.478E-02
   0.657  0.629E-02  0.629E-02
   0.667  0.818E-02  0.818E-02
   0.677  0.105E-01  0.105E-01
   0.687  0.134E-01  0.134E-01
   0.697  0.169E-01  0.169E-01
   0.707  0.211E-01  0.211E-01
   0.717  0.260E-01  0.260E-01
   0.727  0.317E-01  0.317E-01
   0.737  0.382E-01  0.382E-01
   0.747  0.456E-01  0.456E-01
   0.757  0.538E-01  0.538E-01
   0.767  0.629E-01  0.629E-01
   0.777  0.727E-01  0.727E-01
   0.787  0.831E-01  0.831E-01
   0.797  0.939E-01  0.939E-01
   0.807  0.105E+00  0.105E+00
   0.817  0.116E+00  0.116E+00
   0.827  0.127E+00  0.127E+00
   0.837  0.138E+00  0.138E+00
   0.847  0.148E+00  0.148E+00
   0.857  0.157E+00  0.157E+00
   0.867  0.164E+00  0.164E+00
   0.877  0.170E+00  0.170E+00
   0.887  0.175E+00  0.175E+00
   0.897  0.177E+00  0.177E+00
   0.907  0.178E+00  0.178E+00
   0.917  0.177E+00  0.177E+00
   0.927  0.174E+00  0.174E+00
   0.937  0.169E+00  0.169E+00
   0.947  0.162E+00  0.162E+00
   0.957  0.154E+00  0.154E+00
   0.967  0.145E+00  0.145E+00
   0.977  0.135E+00  0.135E+00
   0.987  0.125E+00  0.125E+00
   0.997  0.114E+00  0.114E+00
   1.007  0.102E+00  0.102E+00
   1.017  0.912E-01  0.912E-01
   1.027  0.805E-01  0.805E-01
   1.037  0.702E-01  0.702E-01
   1.047  0.606E-01  0.606E-01
   1.057  0.517E-01  0.517E-01
   1.067  0.437E-01  0.437E-01
   1.077  0.365E-01  0.365E-01
   1.087  0.302E-01  0.302E-01
   1.097  0.247E-01  0.247E-01
   1.107  0.200E-01  0.200E-01
   1.117  0.160E-01  0.160E-01
   1.127  0.127E-01  0.127E-01
   1.137  0.991E-02  0.991E-02
   1.147  0.768E-02  0.768E-02
   1.157  0.588E-02  0.588E-02
   1.167  0.446E-02  0.446E-02
   1.177  0.335E-02  0.335E-02
   1.187  0.248E-02  0.248E-02
   1.197  0.182E-02  0.182E-02
   1.207  0.132E-02  0.132E-02
   1.217  0.951E-03  0.951E-03
   1.227  0.676E-03  0.676E-03
   1.237  0.475E-03  0.475E-03
   1.247  0.331E-03  0.331E-03
   1.257  0.229E-03  0.229E-03
   1.267  0.157E-03  0.157E-03
   1.277  0.109E-03  0.109E-03
   1.287  0.765E-04  0.765E-04
   1.297  0.571E-04  0.571E-04
   1.307  0.477E-04  0.477E-04
   1.317  0.471E-04  0.471E-04
   1.327  0.550E-04  0.550E-04
   1.337  0.727E-04  0.727E-04
   1.347  0.102E-03  0.102E-03
   1.357  0.148E-03  0.148E-03
   1.367  0.215E-03  0.215E-03
   1.377  0.311E-03  0.311E-03
   1.387  0.447E-03  0.447E-03
   1.397  0.635E-03  0.635E-03
   1.407  0.894E-03  0.894E-03
   1.417  0.124E-02  0.124E-02
   1.427  0.172E-02  0.172E-02
   1.437  0.234E-02  0.234E-02
   1.447  0.315E-02  0.315E-02
   1.457  0.420E-02  0.420E-02
   1.467  0.555E-02  0.555E-02
   1.477  0.724E-02  0.724E-02
   1.487  0.935E-02  0.935E-02
   1.497  0.119E-01  0.119E-01
   1.507  0.151E-01  0.151E-01
   1.517  0.189E-01  0.189E-01
   1.527  0.233E-01  0.233E-01
   1.537  0.285E-01  0.285E-01
   1.547  0.346E-01  0.346E-01
   1.557  0.414E-01  0.414E-01
   1.567  0.490E-01  0.490E-01
   1.577  0.574E-01  0.574E-01
   1.587  0.665E-01  0.665E-01
   1.597  0.763E-01  0.763E-01
   1.607  0.865E-01  0.865E-01
   1.617  0.971E-01  0.971E-01
   1.627  0.108E+00  0.108E+00
   1.637  0.118E+00  0.118E+00
   1.647  0.129E+00  0.129E+00
   1.657  0.138E+00  0.138E+00
   1.667  0.147E+00  0.147E+00
   1.677  0.154E+00  0.154E+00
   1.687  0.161E+00  0.161E+00
   1.697  0.165E+00  0.165E+00
   1.707  0.168E+00  0.168E+00
   1.717  0.170E+00  0.170E+00
   1.727  0.169E+00  0.169E+00
   1.737  0.167E+00  0.167E+00
   1.747  0.162E+00  0.162E+00
   1.757  0.157E+00  0.157E+00
   1.767  0.149E+00  0.149E+00
   1.777  0.141E+00  0.141E+00
   1.787  0.132E+00  0.132E+00
   1.797  0.122E+00  0.122E+00
   1.807  0.111E+00  0.111E+00
   1.817  0.101E+00  0.101E+00
   1.827  0.899E-01  0.899E-01
   1.837  0.796E-01  0.796E-01
   1.847  0.696E-01  0.696E-01
   1.857  0.603E-01  0.603E-01
   1.867  0.516E-01  0.516E-01
   1.877  0.438E-01  0.438E-01
   1.887  0.367E-01  0.367E-01
   1.897  0.304E-01  0.304E-01
   1.907  0.249E-01  0.249E-01
   1.917  0.202E-01  0.202E-01
   1.927  0.162E-01  0.162E-01
   1.937  0.129E-01  0.129E-01
   1.947  0.101E-01  0.101E-01
   1.957  0.788E-02  0.788E-02
   1.967  0.606E-02  0.606E-02
   1.977  0.461E-02  0.461E-02
   1.987  0.347E-02  0.347E-02
   1.997  0.258E-02  0.258E-02
   2.007  0.190E-02  0.190E-02
   2.017  0.138E-02  0.138E-02
   2.027  0.997E-03  0.997E-03
   2.037  0.711E-03  0.711E-03
   2.047  0.501E-03  0.501E-03
   2.057  0.350E-03  0.350E-03
   2.067  0.242E-03  0.242E-03
   2.077  0.166E-03  0.166E-03
   2.087  0.114E-03  0.114E-03
   2.097  0.782E-04  0.782E-04
   2.107  0.554E-04  0.554E-04
   2.117  0.421E-04  0.421E-04
   2.127  0.365E-04  0.365E-04
   2.137  0.378E-04  0.378E-04
   2.147  0.461E-04  0.461E-04
   2.157  0.626E-04  0.626E-04
   2.167  0.895E-04  0.895E-04
   2.177  0.130E-03  0.130E-03
   2.187  0.190E-03  0.190E-03
   2.197  0.276E-03  0.276E-03
   2.207  0.397E-03  0.397E-03
   2.217  0.566E-03  0.566E-03
   2.227  0.798E-03  0.798E-03
   2.237  0.111E-02  0.111E-02
   2.247  0.154E-02  0.154E-02
   2.257  0.210E-02  0.210E-02
   2.267  0.283E-02  0.283E-02
   2.277  0.378E-02  0.378E-02
   2.287  0.500E-02  0.500E-02
   2.297  0.653E-02  0.653E-02
   2.307  0.845E-02  0.845E-02
   2.317  0.108E-01  0.108E-01
   2.327  0.137E-01  0.137E-01
   2.337  0.171E-01  0.171E-01
   2.347  0.212E-01  0.212E-01
   2.357  0.260E-01  0.260E-01
   2.367  0.315E-01  0.315E-01
   2.377  0.378E-01  0.378E-01
   2.387  0.449E-01  0.449E-01
   2.397  0.526E-01  0.526E-01
   2.407  0.611E-01  0.611E-01
   2.417  0.702E-01  0.702E-01
   2.427  0.798E-01  0.798E-01
   2.437  0.896E-01  0.896E-01
   2.447  0.997E-01  0.997E-01
   2.457  0.110E+00  0.110E+00
   2.467  0.119E+00  0.119E+00
   2.477  0.128E+00  0.128E+00
   2.487  0.137E+00  0.137E+00
   2.497  0.144E+00  0.144E+00
   2.507  0.150E+00  0.150E+00
   2.517  0.155E+00  0.155E+00
   2.527  0.158E+00  0.158E+00
   2.537  0.159E+00  0.159E+00
   2.547  0.159E+00  0.159E+00
   2.557  0.157E+00  0.157E+00
   2.567  0.153E+00  0.153E+00
   2.577  0.148E+00  0.148E+00
   2.587  0.141E+00  0.141E+00
   2.597  0.134E+00  0.134E+00
   2.607  0.125E+00  0.125E+00
   2.617  0.116E+00  0.116E+00
   2.627  0.106E+00  0.106E+00
   2.637  0.959E-01  0.959E-01
   2.647  0.859E-01  0.859E-01
   2.657  0.761E-01  0.761E-01
   2.667  0.667E-01  0.667E-01
   2.677  0.579E-01  0.579E-01
   2.687  0.496E-01  0.496E-01
   2.697  0.421E-01  0.421E-01
   2.707  0.354E-01  0.354E-01
   2.717  0.294E-01  0.294E-01
   2.727  0.241E-01  0.241E-01
   2.737  0.196E-01  0.196E-01
   2.747  0.158E-01  0.158E-01
   2.757  0.125E-01  0.125E-01
   2.767  0.987E-02  0.987E-02
   2.777  0.768E-02  0.768E-02
   2.787  0.592E-02  0.592E-02
   2.797  0.451E-02  0.451E-02
   2.807  0.340E-02  0.340E-02
   2.817  0.253E-02  0.253E-02
   2.827  0.187E-02  0.187E-02
   2.837  0.136E-02  0.136E-02
   2.847  0.983E-03  0.983E-03
   2.857  0.702E-03  0.702E-03
   2.867  0.496E-03  0.496E-03
   2.877  0.347E-03  0.347E-03
   2.887  0.240E-03  0.240E-03
   2.897  0.165E-03  0.165E-03
   2.907  0.113E-03  0.113E-03
   2.917  0.775E-04  0.775E-04
   2.927  0.545E-04  0.545E-04
   2.937  0.409E-04  0.409E-04
   2.947  0.346E-04  0.346E-04
   2.957  0.347E-04  0.347E-04
   2.967  0.414E-04  0.414E-04
   2.977  0.555E-04  0.555E-04
   2.987  0.789E-04  0.789E-04
   2.997  0.115E-03  0.115E-03
   3.007  0.167E-03  0.167E-03
   3.017  0.243E-03  0.243E-03
   3.027  0.350E-03  0.350E-03
   3.037  0.499E-03  0.499E-03
   3.047  0.704E-03  0.704E-03
   3.057  0.983E-03  0.983E-03
   3.067  0.136E-02  0.136E-02
   3.077  0.186E-02  0.186E-02
   3.087  0.251E-02  0.251E-02
   3.097  0.336E-02  0.336E-02
   3.107  0.444E-02  0.444E-02
   3.117  0.582E-02  0.582E-02
   3.127  0.753E-02  0.753E-02
   3.137  0.965E-02  0.965E-02
   3.147  0.122E-01  0.122E-01
   3.157  0.153E-01  0.153E-01
   3.167  0.190E-01  0.190E-01
   3.177  0.233E-01  0.233E-01
   3.187  0.283E-01  0.283E-01
   3.197  0.340E-01  0.340E-01
   3.207  0.403E-01  0.403E-01
   3.217  0.474E-01  0.474E-01
   3.227  0.551E-01  0.551E-01
   3.237  0.633E-01  0.633E-01
   3.247  0.720E-01  0.720E-01
   3.257  0.811E-01  0.811E-01
   3.267  0.902E-01  0.902E-01
   3.277  0.993E-01  0.993E-01
   3.287  0.108E+00  0.108E+00
   3.297  0.117E+00  0.117E+00
   3.307  0.124E+00  0.124E+00
   3.317  0.131E+00  0.131E+00
   3.327  0.137E+00  0.137E+00
   3.337  0.141E+00  0.141E+00
   3.347  0.144E+00  0.144E+00
   3.357  0.146E+00  0.146E+00
   3.367  0.145E+00  0.145E+00
   3.377  0.144E+00  0.144E+00
   3.387  0.141E+00  0.141E+00
   3.397  0.136E+00  0.136E+00
   3.407  0.130E+00  0.130E+00
   3.417  0.123E+00  0.123E+00
   3.427  0.115E+00  0.115E+00
   3.437  0.107E+00  0.107E+00
   3.447  0.979E-01  0.979E-01
   3.457  0.887E-01  0.887E-01
   3.467  0.796E-01  0.796E-01
   3.477  0.706E-01  0.706E-01
   3.487  0.620E-01  0.620E-01
   3.497  0.538E-01  0.538E-01
   3.507  0.462E-01  0.462E-01
   3.517  0.392E-01  0.392E-01
   3.527  0.330E-01  0.330E-01
   3.537  0.274E-01  0.274E-01
   3.547  0.226E-01  0.226E-01
   3.557  0.184E-01  0.184E-01
   3.567  0.148E-01  0.148E-01
   3.577  0.118E-01  0.118E-01
   3.587  0.927E-02  0.927E-02
   3.597  0.722E-02  0.722E-02
   3.607  0.557E-02  0.557E-02
   3.617  0.425E-02  0.425E-02
   3.627  0.320E-02  0.320E-02
   3.637  0.239E-02  0.239E-02
   3.647  0.177E-02  0.177E-02
   3.657  0.129E-02  0.129E-02
   3.667  0.932E-03  0.932E-03
   3.677  0.666E-03  0.666E-03
   3.687  0.471E-03  0.471E-03
   3.697  0.330E-03  0.330E-03
   3.707  0.229E-03  0.229E-03
   3.717  0.158E-03  0.158E-03
   3.727  0.109E-03  0.109E-03
   3.737  0.755E-04  0.755E-04
   3.747  0.544E-04  0.544E-04
   3.757  0.425E-04  0.425E-04
   3.767  0.383E-04  0.383E-04
   3.777  0.410E-04  0.410E-04
   3.787  0.511E-04  0.511E-04
   3.797  0.699E-04  0.699E-04
   3.807  0.998E-04  0.998E-04
   3.817  0.144E-03  0.144E-03
   3.827  0.209E-03  0.209E-03
   3.837  0.301E-03  0.301E-03
   3.847  0.429E-03  0.429E-03
   3.857  0.606E-03  0.606E-03
   3.867  0.847E-03  0.847E-03
   3.877  0.117E-02  0.117E-02
   3.887  0.160E-02  0.160E-02
   3.897  0.216E-02  0.216E-02
   3.907  0.290E-02  0.290E-02
   3.917  0.384E-02  0.384E-02
   3.927  0.502E-02  0.502E-02
   3.937  0.651E-02  0.651E-02
   3.947  0.834E-02  0.834E-02
   3.957  0.106E-01  0.106E-01
   3.967  0.133E-01  0.133E-01
   3.977  0.165E-01  0.165E-01
   3.987  0.202E-01  0.202E-01
   3.997  0.245E-01  0.245E-01
   4.007  0.295E-01  0.295E-01
   4.017  0.350E-01  0.350E-01
   4.027  0.412E-01  0.412E-01
   4.037  0.479E-01  0.479E-01
   4.047  0.551E-01  0.551E-01
   4.057  0.627E-01  0.627E-01
   4.067  0.706E-01  0.706E-01
   4.077  0.786E-01  0.786E-01
   4.087  0.866E-01  0.866E-01
   4.097  0.944E-01  0.944E-01
   4.107  0.102E+00  0.102E+00
   4.117  0.109E+00  0.109E+00
   4.127  0.115E+00  0.115E+00
   4.137  0.120E+00  0.120E+00
   4.147  0.124E+00  0.124E+00
   4.157  0.126E+00  0.126E+00
   4.167  0.128E+00  0.128E+00
   4.177  0.128E+00  0.128E+00
   4.187  0.126E+00  0.126E+00
   4.197  0.123E+00  0.123E+00
   4.207  0.119E+00  0.119E+00
   4.217  0.114E+00  0.114E+00
   4.227  0.108E+00  0.108E+00
   4.237  0.101E+00  0.101E+00
   4.247  0.940E-01  0.940E-01
   4.257  0.862E-01  0.862E-01
   4.267  0.782E-01  0.782E-01
   4.277  0.702E-01  0.702E-01
   4.287  0.623E-01  0.623E-01
   4.297  0.547E-01  0.547E-01
   4.307  0.475E-01  0.475E-01
   4.317  0.408E-01  0.408E-01
   4.327  0.347E-01  0.347E-01
   4.337  0.292E-01  0.292E-01
   4.347  0.243E-01  0.243E-01
   4.357  0.200E-01  0.200E-01
   4.367  0.163E-01  0.163E-01
   4.377  0.131E-01  0.131E-01
   4.387  0.104E-01  0.104E-01
   4.397  0.824E-02  0.824E-02
   4.407  0.642E-02  0.642E-02
   4.417  0.495E-02  0.495E-02
   4.427  0.378E-02  0.378E-02
   4.437  0.285E-02  0.285E-02
   4.447  0.213E-02  0.213E-02
   4.457  0.157E-02  0.157E-02
   4.467  0.115E-02  0.115E-02
   4.477  0.832E-03  0.832E-03
   4.487  0.596E-03  0.596E-03
   4.497  0.422E-03  0.422E-03
   4.507  0.296E-03  0.296E-03
   4.517  0.207E-03  0.207E-03
   4.527  0.145E-03  0.145E-03
   4.537  0.103E-03  0.103E-03
   4.547  0.757E-04  0.757E-04
   4.557  0.611E-04  0.611E-04
   4.567  0.567E-04  0.567E-04
   4.577  0.620E-04  0.620E-04
   4.587  0.775E-04  0.775E-04
   4.597  0.105E-03  0.105E-03
   4.607  0.148E-03  0.148E-03
   4.617  0.211E-03  0.211E-03
   4.627  0.300E-03  0.300E-03
   4.637  0.424E-03  0.424E-03
   4.647  0.595E-03  0.595E-03
   4.657  0.826E-03  0.826E-03
   4.667  0.113E-02  0.113E-02
   4.677  0.154E-02  0.154E-02
   4.687  0.207E-02  0.207E-02
   4.697  0.276E-02  0.276E-02
   4.707  0.363E-02  0.363E-02
   4.717  0.472E-02  0.472E-02
   4.727  0.608E-02  0.608E-02
   4.737  0.774E-02  0.774E-02
   4.747  0.975E-02  0.975E-02
   4.757  0.122E-01  0.122E-01
   4.767  0.150E-01  0.150E-01
   4.777  0.183E-01  0.183E-01
   4.787  0.221E-01  0.221E-01
   4.797  0.263E-01  0.263E-01
   4.807  0.311E-01  0.311E-01
   4.817  0.363E-01  0.363E-01
   4.827  0.420E-01  0.420E-01
   4.837  0.480E-01  0.480E-01
   4.847  0.543E-01  0.543E-01
   4.857  0.608E-01  0.608E-01
   4.867  0.673E-01  0.673E-01
   4.877  0.737E-01  0.737E-01
   4.887  0.798E-01  0.798E-01
   4.897  0.855E-01  0.855E-01
   4.907  0.906E-01  0.906E-01
   4.917  0.950E-01  0.950E-01
   4.927  0.986E-01  0.986E-01
   4.937  0.101E+00  0.101E+00
   4.947  0.103E+00  0.103E+00
   4.957  0.103E+00  0.103E+00
   4.967  0.102E+00  0.102E+00
   4.977  0.101E+00  0.101E+00
   4.987  0.979E-01  0.979E-01
   4.997  0.942E-01  0.942E-01
   5.007  0.896E-01  0.896E-01
   5.017  0.843E-01  0.843E-01
   5.027  0.785E-01  0.785E-01
   5.037  0.723E-01  0.723E-01
   5.047  0.659E-01  0.659E-01
   5.057  0.594E-01  0.594E-01
   5.067  0.530E-01  0.530E-01
   5.077  0.467E-01  0.467E-01
   5.087  0.408E-01  0.408E-01
   5.097  0.352E-01  0.352E-01
   5.107  0.301E-01  0.301E-01
   5.117  0.254E-01  0.254E-01
   5.127  0.212E-01  0.212E-01
   5.137  0.176E-01  0.176E-01
   5.147  0.144E-01  0.144E-01
   5.157  0.116E-01  0.116E-01
   5.167  0.930E-02  0.930E-02
   5.177  0.737E-02  0.737E-02
   5.187  0.577E-02  0.577E-02
   5.197  0.447E-02  0.447E-02
   5.207  0.343E-02  0.343E-02
   5.217  0.260E-02  0.260E-02
   5.227  0.195E-02  0.195E-02
   5.237  0.145E-02  0.145E-02
   5.247  0.107E-02  0.107E-02
   5.257  0.776E-03  0.776E-03
   5.267  0.562E-03  0.562E-03
   5.277  0.405E-03  0.405E-03
   5.287  0.294E-03  0.294E-03
   5.297  0.219E-03  0.219E-03
   5.307  0.172E-03  0.172E-03
   5.317  0.149E-03  0.149E-03
   5.327  0.146E-03  0.146E-03
   5.337  0.165E-03  0.165E-03
   5.347  0.206E-03  0.206E-03
   5.357  0.273E-03  0.273E-03
   5.367  0.371E-03  0.371E-03
   5.377  0.508E-03  0.508E-03
   5.387  0.695E-03  0.695E-03
   5.397  0.945E-03  0.945E-03
   5.407  0.127E-02  0.127E-02
   5.417  0.170E-02  0.170E-02
   5.427  0.224E-02  0.224E-02
   5.437  0.292E-02  0.292E-02
   5.447  0.377E-02  0.377E-02
   5.457  0.482E-02  0.482E-02
   5.467  0.610E-02  0.610E-02
   5.477  0.762E-02  0.762E-02
   5.487  0.943E-02  0.943E-02
   5.497  0.115E-01  0.115E-01
   5.507  0.140E-01  0.140E-01
   5.517  0.167E-01  0.167E-01
   5.527  0.198E-01  0.198E-01
   5.537  0.232E-01  0.232E-01
   5.547  0.270E-01  0.270E-01
   5.557  0.309E-01  0.309E-01
   5.567  0.351E-01  0.351E-01
   5.577  0.394E-01  0.394E-01
   5.587  0.437E-01  0.437E-01
   5.597  0.480E-01  0.480E-01
   5.607  0.522E-01  0.522E-01
   5.617  0.561E-01  0.561E-01
   5.627  0.597E-01  0.597E-01
   5.637  0.628E-01  0.628E-01
   5.647  0.653E-01  0.653E-01
   5.657  0.673E-01  0.673E-01
   5.667  0.685E-01  0.685E-01
   5.677  0.690E-01  0.690E-01
   5.687  0.688E-01  0.688E-01
   5.697  0.678E-01  0.678E-01
   5.707  0.662E-01  0.662E-01
   5.717  0.639E-01  0.639E-01
   5.727  0.610E-01  0.610E-01
   5.737  0.576E-01  0.576E-01
   5.747  0.538E-01  0.538E-01
   5.757  0.497E-01  0.497E-01
   5.767  0.454E-01  0.454E-01
   5.777  0.411E-01  0.411E-01
   5.787  0.368E-01  0.368E-01
   5.797  0.325E-01  0.325E-01
   5.807  0.285E-01  0.285E-01
   5.817  0.247E-01  0.247E-01
   5.827  0.211E-01  0.211E-01
   5.837  0.179E-01  0.179E-01
   5.847  0.150E-01  0.150E-01
   5.857  0.125E-01  0.125E-01
   5.867  0.102E-01  0.102E-01
   5.877  0.831E-02  0.831E-02
   5.887  0.668E-02  0.668E-02
   5.897  0.532E-02  0.532E-02
   5.907  0.420E-02  0.420E-02
   5.917  0.329E-02  0.329E-02
   5.927  0.257E-02  0.257E-02
   5.937  0.201E-02  0.201E-02
   5.947  0.159E-02  0.159E-02
   5.957  0.129E-02  0.129E-02
   5.967  0.110E-02  0.110E-02
   5.977  0.997E-03  0.997E-03
   5.987  0.984E-03  0.984E-03
   5.997  0.105E-02  0.105E-02
   6.007  0.120E-02  0.120E-02
   6.017  0.144E-02  0.144E-02
   6.027  0.176E-02  0.176E-02
   6.037  0.217E-02  0.217E-02
   6.047  0.269E-02  0.269E-02
   6.057  0.331E-02  0.331E-02
   6.067  0.405E-02  0.405E-02
   6.077  0.491E-02  0.491E-02
   6.087  0.590E-02  0.590E-02
   6.097  0.702E-02  0.702E-02
   6.107  0.825E-02  0.825E-02
   6.117  0.960E-02  0.960E-02
   6.127  0.111E-01  0.111E-01
   6.137  0.126E-01  0.126E-01
   6.147  0.142E-01  0.142E-01
   6.157  0.158E-01  0.158E-01
   6.167  0.175E-01  0.175E-01
   6.177  0.190E-01  0.190E-01
   6.187  0.205E-01  0.205E-01
   6.197  0.219E-01  0.219E-01
   6.207  0.232E-01  0.232E-01
   6.217  0.242E-01  0.242E-01
   6.227  0.250E-01  0.250E-01
   6.237  0.256E-01  0.256E-01
   6.247  0.259E-01  0.259E-01
   6.257  0.259E-01  0.259E-01
   6.267  0.256E-01  0.256E-01
   6.277  0.251E-01  0.251E-01
   6.287  0.243E-01  0.243E-01
   6.297  0.233E-01  0.233E-01
   6.307  0.221E-01  0.221E-01
   6.317  0.207E-01  0.207E-01
   6.327  0.192E-01  0.192E-01
   6.337  0.176E-01  0.176E-01
   6.347  0.160E-01  0.160E-01
   6.357  0.144E-01  0.144E-01
   6.367  0.128E-01  0.128E-01
   6.377  0.112E-01  0.112E-01
   6.387  0.978E-02  0.978E-02
   6.397  0.843E-02  0.843E-02
   6.407  0.719E-02  0.719E-02
   6.417  0.607E-02  0.607E-02
   6.427  0.509E-02  0.509E-02
   6.437  0.425E-02  0.425E-02
   6.447  0.355E-02  0.355E-02
   6.457  0.298E-02  0.298E-02
   6.467  0.256E-02  0.256E-02
   6.477  0.228E-02  0.228E-02
   6.487  0.215E-02  0.215E-02
   6.497  0.219E-02  0.219E-02
   6.507  0.242E-02  0.242E-02
   6.517  0.287E-02  0.287E-02
   6.527  0.358E-02  0.358E-02
   6.537  0.460E-02  0.460E-02
   6.547  0.600E-02  0.600E-02
   6.557  0.785E-02  0.785E-02
   6.567  0.103E-01  0.103E-01
   6.577  0.133E-01  0.133E-01
   6.587  0.172E-01  0.172E-01
   6.597  0.220E-01  0.220E-01
   6.607  0.278E-01  0.278E-01
   6.617  0.349E-01  0.349E-01
   6.627  0.434E-01  0.434E-01
   6.637  0.533E-01  0.533E-01
   6.647  0.649E-01  0.649E-01
   6.657  0.782E-01  0.782E-01
   6.667  0.933E-01  0.933E-01
   6.677  0.110E+00  0.110E+00
   6.687  0.129E+00  0.129E+00
   6.697  0.150E+00  0.150E+00
   6.707  0.172E+00  0.172E+00
   6.717  0.196E+00  0.196E+00
   6.727  0.220E+00  0.220E+00
   6.737  0.246E+00  0.246E+00
   6.747  0.272E+00  0.272E+00
   6.757  0.299E+00  0.299E+00
   6.767  0.325E+00  0.325E+00
   6.777  0.350E+00  0.350E+00
   6.787  0.374E+00  0.374E+00
   6.797  0.397E+00  0.397E+00
   6.807  0.417E+00  0.417E+00
   6.817  0.435E+00  0.435E+00
   6.827  0.451E+00  0.451E+00
   6.837  0.464E+00  0.464E+00
   6.847  0.473E+00  0.473E+00
   6.857  0.480E+00  0.480E+00
   6.867  0.483E+00  0.483E+00
   6.877  0.484E+00  0.484E+00
   6.887  0.482E+00  0.482E+00
   6.897  0.477E+00  0.477E+00
   6.907  0.470E+00  0.470E+00
   6.917  0.462E+00  0.462E+00
   6.927  0.451E+00  0.451E+00
   6.937  0.440E+00  0.440E+00
   6.947  0.428E+00  0.428E+00
   6.957  0.415E+00  0.415E+00
   6.967  0.401E+00  0.401E+00
   6.977  0.388E+00  0.388E+00
   6.987  0.375E+00  0.375E+00
   6.997  0.363E+00  0.363E+00
   7.007  0.351E+00  0.351E+00
   7.017  0.340E+00  0.340E+00
   7.027  0.329E+00  0.329E+00
   7.037  0.320E+00  0.320E+00
   7.047  0.311E+00  0.311E+00
   7.057  0.303E+00  0.303E+00
   7.067  0.296E+00  0.296E+00
   7.077  0.289E+00  0.289E+00
   7.087  0.283E+00  0.283E+00
   7.097  0.278E+00  0.278E+00
   7.107  0.272E+00  0.272E+00
   7.117  0.268E+00  0.268E+00
   7.127  0.263E+00  0.263E+00
   7.137  0.258E+00  0.258E+00
   7.147  0.254E+00  0.254E+00
   7.157  0.249E+00  0.249E+00
   7.167  0.244E+00  0.244E+00
   7.177  0.239E+00  0.239E+00
   7.187  0.234E+00  0.234E+00
   7.197  0.228E+00  0.228E+00
   7.207  0.223E+00  0.223E+00
   7.217  0.217E+00  0.217E+00
   7.227  0.210E+00  0.210E+00
   7.237  0.204E+00  0.204E+00
   7.247  0.197E+00  0.197E+00
   7.257  0.191E+00  0.191E+00
   7.267  0.185E+00  0.185E+00
   7.277  0.179E+00  0.179E+00
   7.287  0.174E+00  0.174E+00
   7.297  0.169E+00  0.169E+00
   7.307  0.165E+00  0.165E+00
   7.317  0.162E+00  0.162E+00
   7.327  0.159E+00  0.159E+00
   7.337  0.158E+00  0.158E+00
   7.347  0.158E+00  0.158E+00
   7.357  0.159E+00  0.159E+00
   7.367  0.161E+00  0.161E+00
   7.377  0.163E+00  0.163E+00
   7.387  0.167E+00  0.167E+00
   7.397  0.171E+00  0.171E+00
   7.407  0.175E+00  0.175E+00
   7.417  0.180E+00  0.180E+00
   7.427  0.184E+00  0.184E+00
   7.437  0.188E+00  0.188E+00
   7.447  0.191E+00  0.191E+00
   7.457  0.194E+00  0.194E+00
   7.467  0.196E+00  0.196E+00
   7.477  0.196E+00  0.196E+00
   7.487  0.195E+00  0.195E+00
   7.497  0.193E+00  0.193E+00
   7.507  0.190E+00  0.190E+00
   7.517  0.185E+00  0.185E+00
   7.527  0.179E+00  0.179E+00
   7.537  0.172E+00  0.172E+00
   7.547  0.164E+00  0.164E+00
   7.557  0.155E+00  0.155E+00
   7.567  0.145E+00  0.145E+00
   7.577  0.135E+00  0.135E+00
   7.587  0.125E+00  0.125E+00
   7.597  0.115E+00  0.115E+00
   7.607  0.106E+00  0.106E+00
   7.617  0.968E-01  0.968E-01
   7.627  0.885E-01  0.885E-01
   7.637  0.813E-01  0.813E-01
   7.647  0.751E-01  0.751E-01
   7.657  0.702E-01  0.702E-01
   7.667  0.667E-01  0.667E-01
   7.677  0.648E-01  0.648E-01
   7.687  0.644E-01  0.644E-01
   7.697  0.655E-01  0.655E-01
   7.707  0.682E-01  0.682E-01
   7.717  0.725E-01  0.725E-01
   7.727  0.781E-01  0.781E-01
   7.737  0.851E-01  0.851E-01
   7.747  0.931E-01  0.931E-01
   7.757  0.102E+00  0.102E+00
   7.767  0.112E+00  0.112E+00
   7.777  0.122E+00  0.122E+00
   7.787  0.132E+00  0.132E+00
   7.797  0.142E+00  0.142E+00
   7.807  0.151E+00  0.151E+00
   7.817  0.159E+00  0.159E+00
   7.827  0.167E+00  0.167E+00
   7.837  0.172E+00  0.172E+00
   7.847  0.177E+00  0.177E+00
   7.857  0.179E+00  0.179E+00
   7.867  0.180E+00  0.180E+00
   7.877  0.178E+00  0.178E+00
   7.887  0.175E+00  0.175E+00
   7.897  0.170E+00  0.170E+00
   7.907  0.164E+00  0.164E+00
   7.917  0.156E+00  0.156E+00
   7.927  0.147E+00  0.147E+00
   7.937  0.137E+00  0.137E+00
   7.947  0.127E+00  0.127E+00
   7.957  0.116E+00  0.116E+00
   7.967  0.105E+00  0.105E+00
   7.977  0.947E-01  0.947E-01
   7.987  0.846E-01  0.846E-01
   7.997  0.752E-01  0.752E-01
   8.007  0.666E-01  0.666E-01
   8.017  0.591E-01  0.591E-01
   8.027  0.525E-01  0.525E-01
   8.037  0.471E-01  0.471E-01
   8.047  0.428E-01  0.428E-01
   8.057  0.395E-01  0.395E-01
   8.067  0.374E-01  0.374E-01
   8.077  0.362E-01  0.362E-01
   8.087  0.359E-01  0.359E-01
   8.097  0.363E-01  0.363E-01
   8.107  0.375E-01  0.375E-01
   8.117  0.392E-01  0.392E-01
   8.127  0.414E-01  0.414E-01
   8.137  0.440E-01  0.440E-01
   8.147  0.468E-01  0.468E-01
   8.157  0.498E-01  0.498E-01
   8.167  0.528E-01  0.528E-01
   8.177  0.559E-01  0.559E-01
   8.187  0.590E-01  0.590E-01
   8.197  0.620E-01  0.620E-01
   8.207  0.650E-01  0.650E-01
   8.217  0.679E-01  0.679E-01
   8.227  0.708E-01  0.708E-01
   8.237  0.738E-01  0.738E-01
   8.247  0.767E-01  0.767E-01
   8.257  0.797E-01  0.797E-01
   8.267  0.828E-01  0.828E-01
   8.277  0.859E-01  0.859E-01
   8.287  0.892E-01  0.892E-01
   8.297  0.925E-01  0.925E-01
   8.307  0.958E-01  0.958E-01
   8.317  0.991E-01  0.991E-01
   8.327  0.102E+00  0.102E+00
   8.337  0.105E+00  0.105E+00
   8.347  0.108E+00  0.108E+00
   8.357  0.110E+00  0.110E+00
   8.367  0.112E+00  0.112E+00
   8.377  0.113E+00  0.113E+00
   8.387  0.114E+00  0.114E+00
   8.397  0.114E+00  0.114E+00
   8.407  0.113E+00  0.113E+00
   8.417  0.111E+00  0.111E+00
   8.427  0.109E+00  0.109E+00
   8.437  0.106E+00  0.106E+00
   8.447  0.103E+00  0.103E+00
   8.457  0.988E-01  0.988E-01
   8.467  0.944E-01  0.944E-01
   8.477  0.895E-01  0.895E-01
   8.487  0.844E-01  0.844E-01
   8.497  0.792E-01  0.792E-01
   8.507  0.739E-01  0.739E-01
   8.517  0.686E-01  0.686E-01
   8.527  0.633E-01  0.633E-01
   8.537  0.582E-01  0.582E-01
   8.547  0.532E-01  0.532E-01
   8.557  0.485E-01  0.485E-01
   8.567  0.440E-01  0.440E-01
   8.577  0.398E-01  0.398E-01
   8.587  0.359E-01  0.359E-01
   8.597  0.323E-01  0.323E-01
   8.607  0.290E-01  0.290E-01
   8.617  0.260E-01  0.260E-01
   8.627  0.233E-01  0.233E-01
   8.637  0.209E-01  0.209E-01
   8.647  0.188E-01  0.188E-01
   8.657  0.170E-01  0.170E-01
   8.667  0.154E-01  0.154E-01
   8.677  0.141E-01  0.141E-01
   8.687  0.130E-01  0.130E-01
   8.697  0.122E-01  0.122E-01
   8.707  0.116E-01  0.116E-01
   8.717  0.111E-01  0.111E-01
   8.727  0.109E-01  0.109E-01
   8.737  0.108E-01  0.108E-01
   8.747  0.108E-01  0.108E-01
   8.757  0.111E-01  0.111E-01
   8.767  0.114E-01  0.114E-01
   8.777  0.120E-01  0.120E-01
   8.787  0.128E-01  0.128E-01
   8.797  0.138E-01  0.138E-01
   8.807  0.151E-01  0.151E-01
   8.817  0.167E-01  0.167E-01
   8.827  0.186E-01  0.186E-01
   8.837  0.209E-01  0.209E-01
   8.847  0.236E-01  0.236E-01
   8.857  0.267E-01  0.267E-01
   8.867  0.302E-01  0.302E-01
   8.877  0.342E-01  0.342E-01
   8.887  0.385E-01  0.385E-01
   8.897  0.432E-01  0.432E-01
   8.907  0.482E-01  0.482E-01
   8.917  0.534E-01  0.534E-01
   8.927  0.587E-01  0.587E-01
   8.937  0.640E-01  0.640E-01
   8.947  0.692E-01  0.692E-01
   8.957  0.741E-01  0.741E-01
   8.967  0.785E-01  0.785E-01
   8.977  0.824E-01  0.824E-01
   8.987  0.856E-01  0.856E-01
   8.997  0.881E-01  0.881E-01
   9.007  0.896E-01  0.896E-01
   9.017  0.903E-01  0.903E-01
   9.027  0.900E-01  0.900E-01
   9.037  0.887E-01  0.887E-01
   9.047  0.865E-01  0.865E-01
   9.057  0.835E-01  0.835E-01
   9.067  0.797E-01  0.797E-01
   9.077  0.753E-01  0.753E-01
   9.087  0.704E-01  0.704E-01
   9.097  0.651E-01  0.651E-01
   9.107  0.595E-01  0.595E-01
   9.117  0.539E-01  0.539E-01
   9.127  0.482E-01  0.482E-01
   9.137  0.427E-01  0.427E-01
   9.147  0.374E-01  0.374E-01
   9.157  0.324E-01  0.324E-01
   9.167  0.278E-01  0.278E-01
   9.177  0.236E-01  0.236E-01
   9.187  0.198E-01  0.198E-01
   9.197  0.164E-01  0.164E-01
   9.207  0.135E-01  0.135E-01
   9.217  0.109E-01  0.109E-01
   9.227  0.879E-02  0.879E-02
   9.237  0.699E-02  0.699E-02
   9.247  0.549E-02  0.549E-02
   9.257  0.427E-02  0.427E-02
   9.267  0.329E-02  0.329E-02
   9.277  0.251E-02  0.251E-02
   9.287  0.189E-02  0.189E-02
   9.297  0.141E-02  0.141E-02
   9.307  0.105E-02  0.105E-02
   9.317  0.771E-03  0.771E-03
   9.327  0.569E-03  0.569E-03
   9.337  0.427E-03  0.427E-03
   9.347  0.334E-03  0.334E-03
   9.357  0.282E-03  0.282E-03
   9.367  0.268E-03  0.268E-03
   9.377  0.292E-03  0.292E-03
   9.387  0.357E-03  0.357E-03
   9.397  0.471E-03  0.471E-03
   9.407  0.646E-03  0.646E-03
   9.417  0.899E-03  0.899E-03
   9.427  0.125E-02  0.125E-02
   9.437  0.174E-02  0.174E-02
   9.447  0.241E-02  0.241E-02
   9.457  0.329E-02  0.329E-02
   9.467  0.446E-02  0.446E-02
   9.477  0.599E-02  0.599E-02
   9.487  0.796E-02  0.796E-02
   9.497  0.105E-01  0.105E-01
   9.507  0.137E-01  0.137E-01
   9.517  0.177E-01  0.177E-01
   9.527  0.226E-01  0.226E-01
   9.537  0.286E-01  0.286E-01
   9.547  0.358E-01  0.358E-01
   9.557  0.445E-01  0.445E-01
   9.567  0.547E-01  0.547E-01
   9.577  0.667E-01  0.667E-01
   9.587  0.804E-01  0.804E-01
   9.597  0.960E-01  0.960E-01
   9.607  0.114E+00  0.114E+00
   9.617  0.133E+00  0.133E+00
   9.627  0.154E+00  0.154E+00
   9.637  0.177E+00  0.177E+00
   9.647  0.202E+00  0.202E+00
   9.657  0.227E+00  0.227E+00
   9.667  0.253E+00  0.253E+00
   9.677  0.280E+00  0.280E+00
   9.687  0.306E+00  0.306E+00
   9.697  0.331E+00  0.331E+00
   9.707  0.355E+00  0.355E+00
   9.717  0.378E+00  0.378E+00
   9.727  0.398E+00  0.398E+00
   9.737  0.415E+00  0.415E+00
   9.747  0.428E+00  0.428E+00
   9.757  0.439E+00  0.439E+00
   9.767  0.445E+00  0.445E+00
   9.777  0.449E+00  0.449E+00
   9.787  0.448E+00  0.448E+00
   9.797  0.445E+00  0.445E+00
   9.807  0.438E+00  0.438E+00
   9.817  0.430E+00  0.430E+00
   9.827  0.419E+00  0.419E+00
   9.837  0.408E+00  0.408E+00
   9.847  0.397E+00  0.397E+00
   9.857  0.385E+00  0.385E+00
   9.867  0.374E+00  0.374E+00
   9.877  0.365E+00  0.365E+00
   9.887  0.358E+00  0.358E+00
   9.897  0.352E+00  0.352E+00
   9.907  0.348E+00  0.348E+00
   9.917  0.346E+00  0.346E+00
   9.927  0.346E+00  0.346E+00
   9.937  0.347E+00  0.347E+00
   9.947  0.349E+00  0.349E+00
   9.957  0.352E+00  0.352E+00
   9.967  0.354E+00  0.354E+00
   9.977  0.356E+00  0.356E+00
   9.987  0.356E+00  0.356E+00
   9.997  0.355E+00  0.355E+00
  10.007  0.352E+00  0.352E+00
  10.017  0.347E+00  0.347E+00
  10.027  0.339E+00  0.339E+00
  10.037  0.328E+00  0.328E+00
  10.047  0.315E+00  0.315E+00
  10.057  0.300E+00  0.300E+00
  10.067  0.283E+00  0.283E+00
  10.077  0.264E+00  0.264E+00
  10.087  0.244E+00  0.244E+00
  10.097  0.223E+00  0.223E+00
  10.107  0.202E+00  0.202E+00
  10.117  0.182E+00  0.182E+00
  10.127  0.161E+00  0.161E+00
  10.137  0.142E+00  0.142E+00
  10.147  0.124E+00  0.124E+00
  10.157  0.108E+00  0.108E+00
  10.167  0.933E-01  0.933E-01
  10.177  0.806E-01  0.806E-01
  10.187  0.698E-01  0.698E-01
  10.197  0.610E-01  0.610E-01
  10.207  0.543E-01  0.543E-01
  10.217  0.496E-01  0.496E-01
  10.227  0.470E-01  0.470E-01
  10.237  0.463E-01  0.463E-01
  10.247  0.476E-01  0.476E-01
  10.257  0.509E-01  0.509E-01
  10.267  0.560E-01  0.560E-01
  10.277  0.629E-01  0.629E-01
  10.287  0.717E-01  0.717E-01
  10.297  0.822E-01  0.822E-01
  10.307  0.944E-01  0.944E-01
  10.317  0.108E+00  0.108E+00
  10.327  0.123E+00  0.123E+00
  10.337  0.140E+00  0.140E+00
  10.347  0.158E+00  0.158E+00
  10.357  0.177E+00  0.177E+00
  10.367  0.196E+00  0.196E+00
  10.377  0.216E+00  0.216E+00
  10.387  0.236E+00  0.236E+00
  10.397  0.256E+00  0.256E+00
  10.407  0.276E+00  0.276E+00
  10.417  0.294E+00  0.294E+00
  10.427  0.311E+00  0.311E+00
  10.437  0.326E+00  0.326E+00
  10.447  0.339E+00  0.339E+00
  10.457  0.349E+00  0.349E+00
  10.467  0.357E+00  0.357E+00
  10.477  0.361E+00  0.361E+00
  10.487  0.363E+00  0.363E+00
  10.497  0.361E+00  0.361E+00
  10.507  0.357E+00  0.357E+00
  10.517  0.349E+00  0.349E+00
  10.527  0.339E+00  0.339E+00
  10.537  0.326E+00  0.326E+00
  10.547  0.312E+00  0.312E+00
  10.557  0.295E+00  0.295E+00
  10.567  0.278E+00  0.278E+00
  10.577  0.260E+00  0.260E+00
  10.587  0.242E+00  0.242E+00
  10.597  0.225E+00  0.225E+00
  10.607  0.209E+00  0.209E+00
  10.617  0.194E+00  0.194E+00
  10.627  0.181E+00  0.181E+00
  10.637  0.170E+00  0.170E+00
  10.647  0.162E+00  0.162E+00
  10.657  0.156E+00  0.156E+00
  10.667  0.152E+00  0.152E+00
  10.677  0.151E+00  0.151E+00
  10.687  0.152E+00  0.152E+00
  10.697  0.154E+00  0.154E+00
  10.707  0.159E+00  0.159E+00
  10.717  0.165E+00  0.165E+00
  10.727  0.171E+00  0.171E+00
  10.737  0.178E+00  0.178E+00
  10.747  0.185E+00  0.185E+00
  10.757  0.191E+00  0.191E+00
  10.767  0.196E+00  0.196E+00
  10.777  0.200E+00  0.200E+00
  10.787  0.203E+00  0.203E+00
  10.797  0.204E+00  0.204E+00
  10.807  0.203E+00  0.203E+00
  10.817  0.200E+00  0.200E+00
  10.827  0.195E+00  0.195E+00
  10.837  0.189E+00  0.189E+00
  10.847  0.180E+00  0.180E+00
  10.857  0.171E+00  0.171E+00
  10.867  0.160E+00  0.160E+00
  10.877  0.148E+00  0.148E+00
  10.887  0.136E+00  0.136E+00
  10.897  0.123E+00  0.123E+00
  10.907  0.110E+00  0.110E+00
  10.917  0.979E-01  0.979E-01
  10.927  0.859E-01  0.859E-01
  10.937  0.746E-01  0.746E-01
  10.947  0.641E-01  0.641E-01
  10.957  0.545E-01  0.545E-01
  10.967  0.458E-01  0.458E-01
  10.977  0.381E-01  0.381E-01
  10.987  0.314E-01  0.314E-01
  10.997  0.255E-01  0.255E-01
  11.007  0.206E-01  0.206E-01
  11.017  0.164E-01  0.164E-01
  11.027  0.129E-01  0.129E-01
  11.037  0.101E-01  0.101E-01
  11.047  0.776E-02  0.776E-02
  11.057  0.592E-02  0.592E-02
  11.067  0.447E-02  0.447E-02
  11.077  0.334E-02  0.334E-02
  11.087  0.246E-02  0.246E-02
  11.097  0.180E-02  0.180E-02
  11.107  0.130E-02  0.130E-02
  11.117  0.931E-03  0.931E-03
  11.127  0.658E-03  0.658E-03
  11.137  0.461E-03  0.461E-03
  11.147  0.319E-03  0.319E-03
  11.157  0.218E-03  0.218E-03
  11.167  0.148E-03  0.148E-03
  11.177  0.991E-04  0.991E-04
  11.187  0.657E-04  0.657E-04
  11.197  0.431E-04  0.431E-04
  11.207  0.280E-04  0.280E-04
  11.217  0.179E-04  0.179E-04
  11.227  0.114E-04  0.114E-04
  11.237  0.716E-05  0.716E-05
  11.247  0.445E-05  0.445E-05
  11.257  0.273E-05  0.273E-05
  11.267  0.166E-05  0.166E-05
  11.277  0.100E-05  0.100E-05
  11.287  0.595E-06  0.595E-06
  11.297  0.350E-06  0.350E-06
  11.307  0.204E-06  0.204E-06
  11.317  0.117E-06  0.117E-06
  11.327  0.670E-07  0.670E-07
  11.337  0.377E-07  0.377E-07
  11.347  0.211E-07  0.211E-07
  11.357  0.116E-07  0.116E-07
  11.367  0.634E-08  0.634E-08
  11.377  0.342E-08  0.342E-08
  11.387  0.183E-08  0.183E-08
  11.397  0.966E-09  0.966E-09
  11.407  0.505E-09  0.505E-09
  11.417  0.261E-09  0.261E-09
  11.427  0.134E-09  0.134E-09
  11.437  0.676E-10  0.676E-10
  11.447  0.338E-10  0.338E-10
  11.457  0.168E-10  0.168E-10
  11.467  0.821E-11  0.821E-11
  11.477  0.398E-11  0.398E-11
  11.487  0.191E-11  0.191E-11
  11.497  0.102E-16  0.102E-16
  11.507  0.131E-16  0.131E-16
  11.517  0.168E-16  0.168E-16
  11.527  0.212E-16  0.212E-16
  11.537  0.266E-16  0.266E-16
  11.547  0.329E-16  0.329E-16
  11.557  0.403E-16  0.403E-16
  11.567  0.487E-16  0.487E-16
  11.577  0.584E-16  0.584E-16
  11.587  0.692E-16  0.692E-16
  11.597  0.811E-16  0.811E-16
  11.607  0.941E-16  0.941E-16
  11.617  0.108E-15  0.108E-15
  11.627  0.122E-15  0.122E-15
  11.637  0.138E-15  0.138E-15
  11.647  0.153E-15  0.153E-15
  11.657  0.168E-15  0.168E-15
  11.667  0.182E-15  0.182E-15
  11.677  0.196E-15  0.196E-15
  11.687  0.209E-15  0.209E-15
  11.697  0.219E-15  0.219E-15
  11.707  0.228E-15  0.228E-15
  11.717  0.235E-15  0.235E-15
  11.727  0.240E-15  0.240E-15
  11.737  0.242E-15  0.242E-15
  11.747  0.241E-15  0.241E-15
  11.757  0.237E-15  0.237E-15
  11.767  0.232E-15  0.232E-15
  11.777  0.224E-15  0.224E-15
  11.787  0.213E-15  0.213E-15
  11.797  0.202E-15  0.202E-15
  11.807  0.188E-15  0.188E-15
  11.817  0.174E-15  0.174E-15
  11.827  0.159E-15  0.159E-15
  11.837  0.144E-15  0.144E-15
  11.847  0.129E-15  0.129E-15
  11.857  0.114E-15  0.114E-15
  11.867  0.999E-16  0.999E-16
  11.877  0.865E-16  0.865E-16
  11.887  0.741E-16  0.741E-16
  11.897  0.629E-16  0.629E-16
  11.907  0.527E-16  0.527E-16
  11.917  0.437E-16  0.437E-16
  11.927  0.359E-16  0.359E-16
  11.937  0.291E-16  0.291E-16
  11.947  0.234E-16  0.234E-16
  11.957  0.186E-16  0.186E-16
  11.967  0.146E-16  0.146E-16
  11.977  0.114E-16  0.114E-16
  11.987  0.874E-17  0.874E-17
  11.997  0.665E-17  0.665E-17
  12.007  0.501E-17  0.501E-17
  12.017  0.373E-17  0.373E-17
  12.027  0.275E-17  0.275E-17
  12.037  0.200E-17  0.200E-17
  12.047  0.144E-17  0.144E-17
  12.057  0.103E-17  0.103E-17
  12.067  0.727E-18  0.727E-18
  12.077  0.479E-12  0.479E-12
  12.087  0.998E-12  0.998E-12
  12.097  0.206E-11  0.206E-11
  12.107  0.421E-11  0.421E-11
  12.117  0.850E-11  0.850E-11
  12.127  0.170E-10  0.170E-10
  12.137  0.336E-10  0.336E-10
  12.147  0.656E-10  0.656E-10
  12.157  0.127E-09  0.127E-09
  12.167  0.243E-09  0.243E-09
  12.177  0.460E-09  0.460E-09
  12.187  0.861E-09  0.861E-09
  12.197  0.160E-08  0.160E-08
  12.207  0.292E-08  0.292E-08
  12.217  0.530E-08  0.530E-08
  12.227  0.951E-08  0.951E-08
  12.237  0.169E-07  0.169E-07
  12.247  0.296E-07  0.296E-07
  12.257  0.514E-07  0.514E-07
  12.267  0.883E-07  0.883E-07
  12.277  0.150E-06  0.150E-06
  12.287  0.252E-06  0.252E-06
  12.297  0.419E-06  0.419E-06
  12.307  0.690E-06  0.690E-06
  12.317  0.112E-05  0.112E-05
  12.327  0.181E-05  0.181E-05
  12.337  0.288E-05  0.288E-05
  12.347  0.453E-05  0.453E-05
  12.357  0.707E-05  0.707E-05
  12.367  0.109E-04  0.109E-04
  12.377  0.166E-04  0.166E-04
  12.387  0.251E-04  0.251E-04
  12.397  0.374E-04  0.374E-04
  12.407  0.552E-04  0.552E-04
  12.417  0.807E-04  0.807E-04
  12.427  0.117E-03  0.117E-03
  12.437  0.167E-03  0.167E-03
  12.447  0.236E-03  0.236E-03
  12.457  0.330E-03  0.330E-03
  12.467  0.456E-03  0.456E-03
  12.477  0.625E-03  0.625E-03
  12.487  0.846E-03  0.846E-03
  12.497  0.113E-02  0.113E-02
  12.507  0.150E-02  0.150E-02
  12.517  0.197E-02  0.197E-02
  12.527  0.255E-02  0.255E-02
  12.537  0.328E-02  0.328E-02
  12.547  0.416E-02  0.416E-02
  12.557  0.522E-02  0.522E-02
  12.567  0.649E-02  0.649E-02
  12.577  0.797E-02  0.797E-02
  12.587  0.969E-02  0.969E-02
  12.597  0.117E-01  0.117E-01
  12.607  0.139E-01  0.139E-01
  12.617  0.163E-01  0.163E-01
  12.627  0.190E-01  0.190E-01
  12.637  0.219E-01  0.219E-01
  12.647  0.249E-01  0.249E-01
  12.657  0.281E-01  0.281E-01
  12.667  0.313E-01  0.313E-01
  12.677  0.345E-01  0.345E-01
  12.687  0.377E-01  0.377E-01
  12.697  0.407E-01  0.407E-01
  12.707  0.434E-01  0.434E-01
  12.717  0.459E-01  0.459E-01
  12.727  0.479E-01  0.479E-01
  12.737  0.495E-01  0.495E-01
  12.747  0.507E-01  0.507E-01
  12.757  0.513E-01  0.513E-01
  12.767  0.513E-01  0.513E-01
  12.777  0.508E-01  0.508E-01
  12.787  0.498E-01  0.498E-01
  12.797  0.482E-01  0.482E-01
  12.807  0.463E-01  0.463E-01
  12.817  0.439E-01  0.439E-01
  12.827  0.413E-01  0.413E-01
  12.837  0.384E-01  0.384E-01
  12.847  0.355E-01  0.355E-01
  12.857  0.325E-01  0.325E-01
  12.867  0.295E-01  0.295E-01
  12.877  0.267E-01  0.267E-01
  12.887  0.241E-01  0.241E-01
  12.897  0.218E-01  0.218E-01
  12.907  0.199E-01  0.199E-01
  12.917  0.184E-01  0.184E-01
  12.927  0.174E-01  0.174E-01
  12.937  0.170E-01  0.170E-01
  12.947  0.172E-01  0.172E-01
  12.957  0.179E-01  0.179E-01
  12.967  0.194E-01  0.194E-01
  12.977  0.216E-01  0.216E-01
  12.987  0.244E-01  0.244E-01
  12.997  0.280E-01  0.280E-01
  13.007  0.322E-01  0.322E-01
  13.017  0.372E-01  0.372E-01
  13.027  0.428E-01  0.428E-01
  13.037  0.489E-01  0.489E-01
  13.047  0.555E-01  0.555E-01
  13.057  0.625E-01  0.625E-01
  13.067  0.697E-01  0.697E-01
  13.077  0.770E-01  0.770E-01
  13.087  0.842E-01  0.842E-01
  13.097  0.911E-01  0.911E-01
  13.107  0.976E-01  0.976E-01
  13.117  0.103E+00  0.103E+00
  13.127  0.108E+00  0.108E+00
  13.137  0.113E+00  0.113E+00
  13.147  0.116E+00  0.116E+00
  13.157  0.117E+00  0.117E+00
  13.167  0.118E+00  0.118E+00
  13.177  0.117E+00  0.117E+00
  13.187  0.115E+00  0.115E+00
  13.197  0.112E+00  0.112E+00
  13.207  0.108E+00  0.108E+00
  13.217  0.103E+00  0.103E+00
  13.227  0.970E-01  0.970E-01
  13.237  0.904E-01  0.904E-01
  13.247  0.834E-01  0.834E-01
  13.257  0.761E-01  0.761E-01
  13.267  0.687E-01  0.687E-01
  13.277  0.613E-01  0.613E-01
  13.287  0.542E-01  0.542E-01
  13.297  0.474E-01  0.474E-01
  13.307  0.409E-01  0.409E-01
  13.317  0.350E-01  0.350E-01
  13.327  0.296E-01  0.296E-01
  13.337  0.248E-01  0.248E-01
  13.347  0.206E-01  0.206E-01
  13.357  0.168E-01  0.168E-01
  13.367  0.137E-01  0.137E-01
  13.377  0.109E-01  0.109E-01
  13.387  0.869E-02  0.869E-02
  13.397  0.682E-02  0.682E-02
  13.407  0.529E-02  0.529E-02
  13.417  0.407E-02  0.407E-02
  13.427  0.309E-02  0.309E-02
  13.437  0.232E-02  0.232E-02
  13.447  0.173E-02  0.173E-02
  13.457  0.127E-02  0.127E-02
  13.467  0.929E-03  0.929E-03
  13.477  0.671E-03  0.671E-03
  13.487  0.481E-03  0.481E-03
  13.497  0.344E-03  0.344E-03
  13.507  0.245E-03  0.245E-03
  13.517  0.177E-03  0.177E-03
  13.527  0.130E-03  0.130E-03
  13.537  0.998E-04  0.998E-04
  13.547  0.820E-04  0.820E-04
  13.557  0.735E-04  0.735E-04
  13.567  0.724E-04  0.724E-04
  13.577  0.774E-04  0.774E-04
  13.587  0.879E-04  0.879E-04
  13.597  0.104E-03  0.104E-03
  13.607  0.126E-03  0.126E-03
  13.617  0.155E-03  0.155E-03
  13.627  0.194E-03  0.194E-03
  13.637  0.244E-03  0.244E-03
  13.647  0.311E-03  0.311E-03
  13.657  0.400E-03  0.400E-03
  13.667  0.518E-03  0.518E-03
  13.677  0.675E-03  0.675E-03
  13.687  0.883E-03  0.883E-03
  13.697  0.116E-02  0.116E-02
  13.707  0.152E-02  0.152E-02
  13.717  0.200E-02  0.200E-02
  13.727  0.261E-02  0.261E-02
  13.737  0.340E-02  0.340E-02
  13.747  0.440E-02  0.440E-02
  13.757  0.566E-02  0.566E-02
  13.767  0.721E-02  0.721E-02
  13.777  0.912E-02  0.912E-02
  13.787  0.114E-01  0.114E-01
  13.797  0.142E-01  0.142E-01
  13.807  0.175E-01  0.175E-01
  13.817  0.213E-01  0.213E-01
  13.827  0.256E-01  0.256E-01
  13.837  0.306E-01  0.306E-01
  13.847  0.361E-01  0.361E-01
  13.857  0.422E-01  0.422E-01
  13.867  0.487E-01  0.487E-01
  13.877  0.557E-01  0.557E-01
  13.887  0.630E-01  0.630E-01
  13.897  0.706E-01  0.706E-01
  13.907  0.781E-01  0.781E-01
  13.917  0.856E-01  0.856E-01
  13.927  0.928E-01  0.928E-01
  13.937  0.995E-01  0.995E-01
  13.947  0.106E+00  0.106E+00
  13.957  0.111E+00  0.111E+00
  13.967  0.115E+00  0.115E+00
  13.977  0.118E+00  0.118E+00
  13.987  0.120E+00  0.120E+00
  13.997  0.121E+00  0.121E+00
  14.007  0.120E+00  0.120E+00
  14.017  0.118E+00  0.118E+00
  14.027  0.115E+00  0.115E+00
  14.037  0.110E+00  0.110E+00
  14.047  0.105E+00  0.105E+00
  14.057  0.991E-01  0.991E-01
  14.067  0.923E-01  0.923E-01
  14.077  0.851E-01  0.851E-01
  14.087  0.776E-01  0.776E-01
  14.097  0.700E-01  0.700E-01
  14.107  0.625E-01  0.625E-01
  14.117  0.552E-01  0.552E-01
  14.127  0.482E-01  0.482E-01
  14.137  0.416E-01  0.416E-01
  14.147  0.356E-01  0.356E-01
  14.157  0.301E-01  0.301E-01
  14.167  0.252E-01  0.252E-01
  14.177  0.208E-01  0.208E-01
  14.187  0.170E-01  0.170E-01
  14.197  0.138E-01  0.138E-01
  14.207  0.111E-01  0.111E-01
  14.217  0.876E-02  0.876E-02
  14.227  0.686E-02  0.686E-02
  14.237  0.532E-02  0.532E-02
  14.247  0.408E-02  0.408E-02
  14.257  0.310E-02  0.310E-02
  14.267  0.233E-02  0.233E-02
  14.277  0.173E-02  0.173E-02
  14.287  0.127E-02  0.127E-02
  14.297  0.923E-03  0.923E-03
  14.307  0.664E-03  0.664E-03
  14.317  0.472E-03  0.472E-03
  14.327  0.332E-03  0.332E-03
  14.337  0.231E-03  0.231E-03
  14.347  0.159E-03  0.159E-03
  14.357  0.108E-03  0.108E-03
  14.367  0.731E-04  0.731E-04
  14.377  0.487E-04  0.487E-04
  14.387  0.321E-04  0.321E-04
  14.397  0.210E-04  0.210E-04
  14.407  0.135E-04  0.135E-04
  14.417  0.867E-05  0.867E-05
  14.427  0.551E-05  0.551E-05
  14.437  0.350E-05  0.350E-05
  14.447  0.227E-05  0.227E-05
  14.457  0.157E-05  0.157E-05
  14.467  0.125E-05  0.125E-05
  14.477  0.125E-05  0.125E-05
  14.487  0.157E-05  0.157E-05
  14.497  0.227E-05  0.227E-05
  14.507  0.349E-05  0.349E-05
  14.517  0.548E-05  0.548E-05
  14.527  0.861E-05  0.861E-05
  14.537  0.134E-04  0.134E-04
  14.547  0.207E-04  0.207E-04
  14.557  0.317E-04  0.317E-04
  14.567  0.480E-04  0.480E-04
  14.577  0.718E-04  0.718E-04
  14.587  0.106E-03  0.106E-03
  14.597  0.156E-03  0.156E-03
  14.607  0.226E-03  0.226E-03
  14.617  0.323E-03  0.323E-03
  14.627  0.459E-03  0.459E-03
  14.637  0.643E-03  0.643E-03
  14.647  0.893E-03  0.893E-03
  14.657  0.123E-02  0.123E-02
  14.667  0.166E-02  0.166E-02
  14.677  0.224E-02  0.224E-02
  14.687  0.297E-02  0.297E-02
  14.697  0.391E-02  0.391E-02
  14.707  0.508E-02  0.508E-02
  14.717  0.654E-02  0.654E-02
  14.727  0.832E-02  0.832E-02
  14.737  0.105E-01  0.105E-01
  14.747  0.130E-01  0.130E-01
  14.757  0.161E-01  0.161E-01
  14.767  0.196E-01  0.196E-01
  14.777  0.236E-01  0.236E-01
  14.787  0.282E-01  0.282E-01
  14.797  0.333E-01  0.333E-01
  14.807  0.388E-01  0.388E-01
  14.817  0.448E-01  0.448E-01
  14.827  0.512E-01  0.512E-01
  14.837  0.579E-01  0.579E-01
  14.847  0.647E-01  0.647E-01
  14.857  0.716E-01  0.716E-01
  14.867  0.783E-01  0.783E-01
  14.877  0.848E-01  0.848E-01
  14.887  0.908E-01  0.908E-01
  14.897  0.961E-01  0.961E-01
  14.907  0.101E+00  0.101E+00
  14.917  0.104E+00  0.104E+00
  14.927  0.107E+00  0.107E+00
  14.937  0.109E+00  0.109E+00
  14.947  0.109E+00  0.109E+00
  14.957  0.108E+00  0.108E+00
  14.967  0.106E+00  0.106E+00
  14.977  0.103E+00  0.103E+00
  14.987  0.992E-01  0.992E-01
  14.997  0.943E-01  0.943E-01
  15.007  0.887E-01  0.887E-01
  15.017  0.825E-01  0.825E-01
  15.027  0.760E-01  0.760E-01
  15.037  0.692E-01  0.692E-01
  15.047  0.623E-01  0.623E-01
  15.057  0.555E-01  0.555E-01
  15.067  0.489E-01  0.489E-01
  15.077  0.427E-01  0.427E-01
  15.087  0.368E-01  0.368E-01
  15.097  0.314E-01  0.314E-01
  15.107  0.265E-01  0.265E-01
  15.117  0.222E-01  0.222E-01
  15.127  0.183E-01  0.183E-01
  15.137  0.150E-01  0.150E-01
  15.147  0.121E-01  0.121E-01
  15.157  0.967E-02  0.967E-02
  15.167  0.765E-02  0.765E-02
  15.177  0.599E-02  0.599E-02
  15.187  0.464E-02  0.464E-02
  15.197  0.355E-02  0.355E-02
  15.207  0.269E-02  0.269E-02
  15.217  0.202E-02  0.202E-02
  15.227  0.150E-02  0.150E-02
  15.237  0.110E-02  0.110E-02
  15.247  0.797E-03  0.797E-03
  15.257  0.572E-03  0.572E-03
  15.267  0.406E-03  0.406E-03
  15.277  0.285E-03  0.285E-03
  15.287  0.198E-03  0.198E-03
  15.297  0.136E-03  0.136E-03
  15.307  0.927E-04  0.927E-04
  15.317  0.624E-04  0.624E-04
  15.327  0.415E-04  0.415E-04
  15.337  0.274E-04  0.274E-04
  15.347  0.178E-04  0.178E-04
  15.357  0.115E-04  0.115E-04
  15.367  0.732E-05  0.732E-05
  15.377  0.462E-05  0.462E-05
  15.387  0.290E-05  0.290E-05
  15.397  0.181E-05  0.181E-05
  15.407  0.114E-05  0.114E-05
  15.417  0.747E-06  0.747E-06
  15.427  0.549E-06  0.549E-06
  15.437  0.499E-06  0.499E-06
  15.447  0.585E-06  0.585E-06
  15.457  0.826E-06  0.826E-06
  15.467  0.128E-05  0.128E-05
  15.477  0.203E-05  0.203E-05
  15.487  0.324E-05  0.324E-05
  15.497  0.514E-05  0.514E-05
  15.507  0.810E-05  0.810E-05
  15.517  0.126E-04  0.126E-04
  15.527  0.195E-04  0.195E-04
  15.537  0.297E-04  0.297E-04
  15.547  0.448E-04  0.448E-04
  15.557  0.668E-04  0.668E-04
  15.567  0.987E-04  0.987E-04
  15.577  0.144E-03  0.144E-03
  15.587  0.208E-03  0.208E-03
  15.597  0.298E-03  0.298E-03
  15.607  0.421E-03  0.421E-03
  15.617  0.589E-03  0.589E-03
  15.627  0.815E-03  0.815E-03
  15.637  0.112E-02  0.112E-02
  15.647  0.151E-02  0.151E-02
  15.657  0.203E-02  0.203E-02
  15.667  0.269E-02  0.269E-02
  15.677  0.352E-02  0.352E-02
  15.687  0.457E-02  0.457E-02
  15.697  0.586E-02  0.586E-02
  15.707  0.744E-02  0.744E-02
  15.717  0.934E-02  0.934E-02
  15.727  0.116E-01  0.116E-01
  15.737  0.143E-01  0.143E-01
  15.747  0.173E-01  0.173E-01
  15.757  0.209E-01  0.209E-01
  15.767  0.248E-01  0.248E-01
  15.777  0.292E-01  0.292E-01
  15.787  0.340E-01  0.340E-01
  15.797  0.391E-01  0.391E-01
  15.807  0.446E-01  0.446E-01
  15.817  0.503E-01  0.503E-01
  15.827  0.561E-01  0.561E-01
  15.837  0.618E-01  0.618E-01
  15.847  0.675E-01  0.675E-01
  15.857  0.728E-01  0.728E-01
  15.867  0.778E-01  0.778E-01
  15.877  0.822E-01  0.822E-01
  15.887  0.859E-01  0.859E-01
  15.897  0.888E-01  0.888E-01
  15.907  0.908E-01  0.908E-01
  15.917  0.919E-01  0.919E-01
  15.927  0.919E-01  0.919E-01
  15.937  0.910E-01  0.910E-01
  15.947  0.892E-01  0.892E-01
  15.957  0.864E-01  0.864E-01
  15.967  0.828E-01  0.828E-01
  15.977  0.785E-01  0.785E-01
  15.987  0.736E-01  0.736E-01
  15.997  0.683E-01  0.683E-01
  16.007  0.627E-01  0.627E-01
  16.017  0.570E-01  0.570E-01
  16.027  0.512E-01  0.512E-01
  16.037  0.455E-01  0.455E-01
  16.047  0.400E-01  0.400E-01
  16.057  0.348E-01  0.348E-01
  16.067  0.299E-01  0.299E-01
  16.077  0.255E-01  0.255E-01
  16.087  0.214E-01  0.214E-01
  16.097  0.179E-01  0.179E-01
  16.107  0.147E-01  0.147E-01
  16.117  0.120E-01  0.120E-01
  16.127  0.967E-02  0.967E-02
  16.137  0.771E-02  0.771E-02
  16.147  0.609E-02  0.609E-02
  16.157  0.475E-02  0.475E-02
  16.167  0.367E-02  0.367E-02
  16.177  0.280E-02  0.280E-02
  16.187  0.212E-02  0.212E-02
  16.197  0.158E-02  0.158E-02
  16.207  0.117E-02  0.117E-02
  16.217  0.857E-03  0.857E-03
  16.227  0.620E-03  0.620E-03
  16.237  0.444E-03  0.444E-03
  16.247  0.315E-03  0.315E-03
  16.257  0.220E-03  0.220E-03
  16.267  0.153E-03  0.153E-03
  16.277  0.105E-03  0.105E-03
  16.287  0.711E-04  0.711E-04
  16.297  0.477E-04  0.477E-04
  16.307  0.317E-04  0.317E-04
  16.317  0.208E-04  0.208E-04
  16.327  0.135E-04  0.135E-04
  16.337  0.869E-05  0.869E-05
  16.347  0.553E-05  0.553E-05
  16.357  0.349E-05  0.349E-05
  16.367  0.219E-05  0.219E-05
  16.377  0.138E-05  0.138E-05
  16.387  0.904E-06  0.904E-06
  16.397  0.649E-06  0.649E-06
  16.407  0.563E-06  0.563E-06
  16.417  0.627E-06  0.627E-06
  16.427  0.854E-06  0.854E-06
  16.437  0.129E-05  0.129E-05
  16.447  0.203E-05  0.203E-05
  16.457  0.322E-05  0.322E-05
  16.467  0.509E-05  0.509E-05
  16.477  0.797E-05  0.797E-05
  16.487  0.124E-04  0.124E-04
  16.497  0.190E-04  0.190E-04
  16.507  0.288E-04  0.288E-04
  16.517  0.432E-04  0.432E-04
  16.527  0.642E-04  0.642E-04
  16.537  0.943E-04  0.943E-04
  16.547  0.137E-03  0.137E-03
  16.557  0.197E-03  0.197E-03
  16.567  0.280E-03  0.280E-03
  16.577  0.395E-03  0.395E-03
  16.587  0.549E-03  0.549E-03
  16.597  0.757E-03  0.757E-03
  16.607  0.103E-02  0.103E-02
  16.617  0.139E-02  0.139E-02
  16.627  0.185E-02  0.185E-02
  16.637  0.244E-02  0.244E-02
  16.647  0.319E-02  0.319E-02
  16.657  0.412E-02  0.412E-02
  16.667  0.526E-02  0.526E-02
  16.677  0.664E-02  0.664E-02
  16.687  0.830E-02  0.830E-02
  16.697  0.103E-01  0.103E-01
  16.707  0.125E-01  0.125E-01
  16.717  0.152E-01  0.152E-01
  16.727  0.182E-01  0.182E-01
  16.737  0.215E-01  0.215E-01
  16.747  0.252E-01  0.252E-01
  16.757  0.292E-01  0.292E-01
  16.767  0.334E-01  0.334E-01
  16.777  0.379E-01  0.379E-01
  16.787  0.425E-01  0.425E-01
  16.797  0.472E-01  0.472E-01
  16.807  0.518E-01  0.518E-01
  16.817  0.562E-01  0.562E-01
  16.827  0.604E-01  0.604E-01
  16.837  0.642E-01  0.642E-01
  16.847  0.675E-01  0.675E-01
  16.857  0.702E-01  0.702E-01
  16.867  0.722E-01  0.722E-01
  16.877  0.735E-01  0.735E-01
  16.887  0.740E-01  0.740E-01
  16.897  0.737E-01  0.737E-01
  16.907  0.726E-01  0.726E-01
  16.917  0.708E-01  0.708E-01
  16.927  0.682E-01  0.682E-01
  16.937  0.651E-01  0.651E-01
  16.947  0.614E-01  0.614E-01
  16.957  0.573E-01  0.573E-01
  16.967  0.529E-01  0.529E-01
  16.977  0.484E-01  0.484E-01
  16.987  0.437E-01  0.437E-01
  16.997  0.391E-01  0.391E-01
  17.007  0.346E-01  0.346E-01
  17.017  0.302E-01  0.302E-01
  17.027  0.262E-01  0.262E-01
  17.037  0.224E-01  0.224E-01
  17.047  0.190E-01  0.190E-01
  17.057  0.159E-01  0.159E-01
  17.067  0.132E-01  0.132E-01
  17.077  0.108E-01  0.108E-01
  17.087  0.876E-02  0.876E-02
  17.097  0.703E-02  0.703E-02
  17.107  0.558E-02  0.558E-02
  17.117  0.438E-02  0.438E-02
  17.127  0.341E-02  0.341E-02
  17.137  0.262E-02  0.262E-02
  17.147  0.199E-02  0.199E-02
  17.157  0.150E-02  0.150E-02
  17.167  0.111E-02  0.111E-02
  17.177  0.819E-03  0.819E-03
  17.187  0.597E-03  0.597E-03
  17.197  0.430E-03  0.430E-03
  17.207  0.306E-03  0.306E-03
  17.217  0.216E-03  0.216E-03
  17.227  0.150E-03  0.150E-03
  17.237  0.104E-03  0.104E-03
  17.247  0.708E-04  0.708E-04
  17.257  0.478E-04  0.478E-04
  17.267  0.319E-04  0.319E-04
  17.277  0.211E-04  0.211E-04
  17.287  0.138E-04  0.138E-04
  17.297  0.894E-05  0.894E-05
  17.307  0.575E-05  0.575E-05
  17.317  0.370E-05  0.370E-05
  17.327  0.242E-05  0.242E-05
  17.337  0.166E-05  0.166E-05
  17.347  0.130E-05  0.130E-05
  17.357  0.125E-05  0.125E-05
  17.367  0.151E-05  0.151E-05
  17.377  0.211E-05  0.211E-05
  17.387  0.318E-05  0.318E-05
  17.397  0.490E-05  0.490E-05
  17.407  0.759E-05  0.759E-05
  17.417  0.117E-04  0.117E-04
  17.427  0.178E-04  0.178E-04
  17.437  0.269E-04  0.269E-04
  17.447  0.401E-04  0.401E-04
  17.457  0.593E-04  0.593E-04
  17.467  0.867E-04  0.867E-04
  17.477  0.125E-03  0.125E-03
  17.487  0.180E-03  0.180E-03
  17.497  0.254E-03  0.254E-03
  17.507  0.356E-03  0.356E-03
  17.517  0.493E-03  0.493E-03
  17.527  0.675E-03  0.675E-03
  17.537  0.916E-03  0.916E-03
  17.547  0.123E-02  0.123E-02
  17.557  0.163E-02  0.163E-02
  17.567  0.214E-02  0.214E-02
  17.577  0.277E-02  0.277E-02
  17.587  0.356E-02  0.356E-02
  17.597  0.453E-02  0.453E-02
  17.607  0.569E-02  0.569E-02
  17.617  0.708E-02  0.708E-02
  17.627  0.870E-02  0.870E-02
  17.637  0.106E-01  0.106E-01
  17.647  0.127E-01  0.127E-01
  17.657  0.152E-01  0.152E-01
  17.667  0.179E-01  0.179E-01
  17.677  0.208E-01  0.208E-01
  17.687  0.240E-01  0.240E-01
  17.697  0.274E-01  0.274E-01
  17.707  0.309E-01  0.309E-01
  17.717  0.345E-01  0.345E-01
  17.727  0.381E-01  0.381E-01
  17.737  0.416E-01  0.416E-01
  17.747  0.449E-01  0.449E-01
  17.757  0.480E-01  0.480E-01
  17.767  0.508E-01  0.508E-01
  17.777  0.531E-01  0.531E-01
  17.787  0.549E-01  0.549E-01
  17.797  0.562E-01  0.562E-01
  17.807  0.570E-01  0.570E-01
  17.817  0.570E-01  0.570E-01
  17.827  0.565E-01  0.565E-01
  17.837  0.554E-01  0.554E-01
  17.847  0.537E-01  0.537E-01
  17.857  0.516E-01  0.516E-01
  17.867  0.489E-01  0.489E-01
  17.877  0.459E-01  0.459E-01
  17.887  0.427E-01  0.427E-01
  17.897  0.392E-01  0.392E-01
  17.907  0.356E-01  0.356E-01
  17.917  0.320E-01  0.320E-01
  17.927  0.285E-01  0.285E-01
  17.937  0.251E-01  0.251E-01
  17.947  0.218E-01  0.218E-01
  17.957  0.188E-01  0.188E-01
  17.967  0.160E-01  0.160E-01
  17.977  0.135E-01  0.135E-01
  17.987  0.112E-01  0.112E-01
  17.997  0.928E-02  0.928E-02
  18.007  0.757E-02  0.757E-02
  18.017  0.611E-02  0.611E-02
  18.027  0.488E-02  0.488E-02
  18.037  0.385E-02  0.385E-02
  18.047  0.301E-02  0.301E-02
  18.057  0.233E-02  0.233E-02
  18.067  0.178E-02  0.178E-02
  18.077  0.135E-02  0.135E-02
  18.087  0.101E-02  0.101E-02
  18.097  0.745E-03  0.745E-03
  18.107  0.546E-03  0.546E-03
  18.117  0.395E-03  0.395E-03
  18.127  0.283E-03  0.283E-03
  18.137  0.201E-03  0.201E-03
  18.147  0.141E-03  0.141E-03
  18.157  0.977E-04  0.977E-04
  18.167  0.670E-04  0.670E-04
  18.177  0.455E-04  0.455E-04
  18.187  0.306E-04  0.306E-04
  18.197  0.203E-04  0.203E-04
  18.207  0.134E-04  0.134E-04
  18.217  0.868E-05  0.868E-05
  18.227  0.558E-05  0.558E-05
  18.237  0.355E-05  0.355E-05
  18.247  0.224E-05  0.224E-05
  18.257  0.139E-05  0.139E-05
  18.267  0.858E-06  0.858E-06
  18.277  0.523E-06  0.523E-06
  18.287  0.315E-06  0.315E-06
  18.297  0.188E-06  0.188E-06
  18.307  0.111E-06  0.111E-06
  18.317  0.647E-07  0.647E-07
  18.327  0.374E-07  0.374E-07
  18.337  0.213E-07  0.213E-07
  18.347  0.121E-07  0.121E-07
  18.357  0.674E-08  0.674E-08
  18.367  0.373E-08  0.373E-08
