# E (eV)   ldos(E)   pdos(E)   
  -6.301  0.308E-04  0.308E-04
  -6.291  0.480E-04  0.480E-04
  -6.281  0.741E-04  0.741E-04
  -6.271  0.113E-03  0.113E-03
  -6.261  0.171E-03  0.171E-03
  -6.251  0.256E-03  0.256E-03
  -6.241  0.378E-03  0.378E-03
  -6.231  0.554E-03  0.554E-03
  -6.221  0.803E-03  0.803E-03
  -6.211  0.115E-02  0.115E-02
  -6.201  0.163E-02  0.163E-02
  -6.191  0.229E-02  0.229E-02
  -6.181  0.319E-02  0.319E-02
  -6.171  0.438E-02  0.438E-02
  -6.161  0.597E-02  0.597E-02
  -6.151  0.804E-02  0.804E-02
  -6.141  0.107E-01  0.107E-01
  -6.131  0.141E-01  0.141E-01
  -6.121  0.185E-01  0.185E-01
  -6.111  0.239E-01  0.239E-01
  -6.101  0.305E-01  0.305E-01
  -6.091  0.387E-01  0.387E-01
  -6.081  0.485E-01  0.485E-01
  -6.071  0.601E-01  0.601E-01
  -6.061  0.739E-01  0.739E-01
  -6.051  0.898E-01  0.898E-01
  -6.041  0.108E+00  0.108E+00
  -6.031  0.129E+00  0.129E+00
  -6.021  0.152E+00  0.152E+00
  -6.011  0.178E+00  0.178E+00
  -6.001  0.206E+00  0.206E+00
  -5.991  0.236E+00  0.236E+00
  -5.981  0.268E+00  0.268E+00
  -5.971  0.301E+00  0.301E+00
  -5.961  0.335E+00  0.335E+00
  -5.951  0.370E+00  0.370E+00
  -5.941  0.405E+00  0.405E+00
  -5.931  0.439E+00  0.439E+00
  -5.921  0.472E+00  0.472E+00
  -5.911  0.503E+00  0.503E+00
  -5.901  0.531E+00  0.531E+00
  -5.891  0.557E+00  0.557E+00
  -5.881  0.579E+00  0.579E+00
  -5.871  0.597E+00  0.597E+00
  -5.861  0.612E+00  0.612E+00
  -5.851  0.622E+00  0.622E+00
  -5.841  0.628E+00  0.628E+00
  -5.831  0.630E+00  0.630E+00
  -5.821  0.629E+00  0.629E+00
  -5.811  0.624E+00  0.624E+00
  -5.801  0.615E+00  0.615E+00
  -5.791  0.604E+00  0.604E+00
  -5.781  0.590E+00  0.590E+00
  -5.771  0.575E+00  0.575E+00
  -5.761  0.558E+00  0.558E+00
  -5.751  0.540E+00  0.540E+00
  -5.741  0.521E+00  0.521E+00
  -5.731  0.502E+00  0.502E+00
  -5.721  0.483E+00  0.483E+00
  -5.711  0.464E+00  0.464E+00
  -5.701  0.447E+00  0.447E+00
  -5.691  0.430E+00  0.430E+00
  -5.681  0.414E+00  0.414E+00
  -5.671  0.400E+00  0.400E+00
  -5.661  0.386E+00  0.386E+00
  -5.651  0.374E+00  0.374E+00
  -5.641  0.363E+00  0.363E+00
  -5.631  0.353E+00  0.353E+00
  -5.621  0.344E+00  0.344E+00
  -5.611  0.336E+00  0.336E+00
  -5.601  0.329E+00  0.329E+00
  -5.591  0.322E+00  0.322E+00
  -5.581  0.315E+00  0.315E+00
  -5.571  0.308E+00  0.308E+00
  -5.561  0.302E+00  0.302E+00
  -5.551  0.296E+00  0.296E+00
  -5.541  0.289E+00  0.289E+00
  -5.531  0.282E+00  0.282E+00
  -5.521  0.276E+00  0.276E+00
  -5.511  0.269E+00  0.269E+00
  -5.501  0.262E+00  0.262E+00
  -5.491  0.255E+00  0.255E+00
  -5.481  0.249E+00  0.249E+00
  -5.471  0.242E+00  0.242E+00
  -5.461  0.236E+00  0.236E+00
  -5.451  0.231E+00  0.231E+00
  -5.441  0.226E+00  0.226E+00
  -5.431  0.221E+00  0.221E+00
  -5.421  0.218E+00  0.218E+00
  -5.411  0.215E+00  0.215E+00
  -5.401  0.212E+00  0.212E+00
  -5.391  0.211E+00  0.211E+00
  -5.381  0.210E+00  0.210E+00
  -5.371  0.209E+00  0.209E+00
  -5.361  0.209E+00  0.209E+00
  -5.351  0.210E+00  0.210E+00
  -5.341  0.211E+00  0.211E+00
  -5.331  0.211E+00  0.211E+00
  -5.321  0.212E+00  0.212E+00
  -5.311  0.213E+00  0.213E+00
  -5.301  0.213E+00  0.213E+00
  -5.291  0.213E+00  0.213E+00
  -5.281  0.213E+00  0.213E+00
  -5.271  0.212E+00  0.212E+00
  -5.261  0.210E+00  0.210E+00
  -5.251  0.208E+00  0.208E+00
  -5.241  0.205E+00  0.205E+00
  -5.231  0.201E+00  0.201E+00
  -5.221  0.196E+00  0.196E+00
  -5.211  0.191E+00  0.191E+00
  -5.201  0.186E+00  0.186E+00
  -5.191  0.180E+00  0.180E+00
  -5.181  0.173E+00  0.173E+00
  -5.171  0.167E+00  0.167E+00
  -5.161  0.161E+00  0.161E+00
  -5.151  0.155E+00  0.155E+00
  -5.141  0.149E+00  0.149E+00
  -5.131  0.144E+00  0.144E+00
  -5.121  0.140E+00  0.140E+00
  -5.111  0.137E+00  0.137E+00
  -5.101  0.135E+00  0.135E+00
  -5.091  0.133E+00  0.133E+00
  -5.081  0.133E+00  0.133E+00
  -5.071  0.134E+00  0.134E+00
  -5.061  0.135E+00  0.135E+00
  -5.051  0.138E+00  0.138E+00
  -5.041  0.142E+00  0.142E+00
  -5.031  0.146E+00  0.146E+00
  -5.021  0.151E+00  0.151E+00
  -5.011  0.156E+00  0.156E+00
  -5.001  0.161E+00  0.161E+00
  -4.991  0.167E+00  0.167E+00
  -4.981  0.172E+00  0.172E+00
  -4.971  0.176E+00  0.176E+00
  -4.961  0.180E+00  0.180E+00
  -4.951  0.183E+00  0.183E+00
  -4.941  0.186E+00  0.186E+00
  -4.931  0.187E+00  0.187E+00
  -4.921  0.186E+00  0.186E+00
  -4.911  0.185E+00  0.185E+00
  -4.901  0.182E+00  0.182E+00
  -4.891  0.178E+00  0.178E+00
  -4.881  0.173E+00  0.173E+00
  -4.871  0.167E+00  0.167E+00
  -4.861  0.160E+00  0.160E+00
  -4.851  0.152E+00  0.152E+00
  -4.841  0.144E+00  0.144E+00
  -4.831  0.135E+00  0.135E+00
  -4.821  0.127E+00  0.127E+00
  -4.811  0.118E+00  0.118E+00
  -4.801  0.110E+00  0.110E+00
  -4.791  0.102E+00  0.102E+00
  -4.781  0.951E-01  0.951E-01
  -4.771  0.892E-01  0.892E-01
  -4.761  0.845E-01  0.845E-01
  -4.751  0.810E-01  0.810E-01
  -4.741  0.788E-01  0.788E-01
  -4.731  0.781E-01  0.781E-01
  -4.721  0.787E-01  0.787E-01
  -4.711  0.808E-01  0.808E-01
  -4.701  0.842E-01  0.842E-01
  -4.691  0.888E-01  0.888E-01
  -4.681  0.946E-01  0.946E-01
  -4.671  0.101E+00  0.101E+00
  -4.661  0.109E+00  0.109E+00
  -4.651  0.117E+00  0.117E+00
  -4.641  0.126E+00  0.126E+00
  -4.631  0.134E+00  0.134E+00
  -4.621  0.143E+00  0.143E+00
  -4.611  0.151E+00  0.151E+00
  -4.601  0.159E+00  0.159E+00
  -4.591  0.166E+00  0.166E+00
  -4.581  0.172E+00  0.172E+00
  -4.571  0.177E+00  0.177E+00
  -4.561  0.181E+00  0.181E+00
  -4.551  0.183E+00  0.183E+00
  -4.541  0.183E+00  0.183E+00
  -4.531  0.182E+00  0.182E+00
  -4.521  0.180E+00  0.180E+00
  -4.511  0.176E+00  0.176E+00
  -4.501  0.170E+00  0.170E+00
  -4.491  0.163E+00  0.163E+00
  -4.481  0.155E+00  0.155E+00
  -4.471  0.146E+00  0.146E+00
  -4.461  0.137E+00  0.137E+00
  -4.451  0.126E+00  0.126E+00
  -4.441  0.116E+00  0.116E+00
  -4.431  0.106E+00  0.106E+00
  -4.421  0.956E-01  0.956E-01
  -4.411  0.859E-01  0.859E-01
  -4.401  0.769E-01  0.769E-01
  -4.391  0.686E-01  0.686E-01
  -4.381  0.614E-01  0.614E-01
  -4.371  0.552E-01  0.552E-01
  -4.361  0.503E-01  0.503E-01
  -4.351  0.466E-01  0.466E-01
  -4.341  0.444E-01  0.444E-01
  -4.331  0.435E-01  0.435E-01
  -4.321  0.440E-01  0.440E-01
  -4.311  0.460E-01  0.460E-01
  -4.301  0.494E-01  0.494E-01
  -4.291  0.541E-01  0.541E-01
  -4.281  0.602E-01  0.602E-01
  -4.271  0.675E-01  0.675E-01
  -4.261  0.759E-01  0.759E-01
  -4.251  0.852E-01  0.852E-01
  -4.241  0.953E-01  0.953E-01
  -4.231  0.106E+00  0.106E+00
  -4.221  0.117E+00  0.117E+00
  -4.211  0.128E+00  0.128E+00
  -4.201  0.139E+00  0.139E+00
  -4.191  0.150E+00  0.150E+00
  -4.181  0.159E+00  0.159E+00
  -4.171  0.168E+00  0.168E+00
  -4.161  0.176E+00  0.176E+00
  -4.151  0.182E+00  0.182E+00
  -4.141  0.186E+00  0.186E+00
  -4.131  0.188E+00  0.188E+00
  -4.121  0.189E+00  0.189E+00
  -4.111  0.188E+00  0.188E+00
  -4.101  0.185E+00  0.185E+00
  -4.091  0.180E+00  0.180E+00
  -4.081  0.174E+00  0.174E+00
  -4.071  0.166E+00  0.166E+00
  -4.061  0.157E+00  0.157E+00
  -4.051  0.147E+00  0.147E+00
  -4.041  0.136E+00  0.136E+00
  -4.031  0.125E+00  0.125E+00
  -4.021  0.114E+00  0.114E+00
  -4.011  0.103E+00  0.103E+00
  -4.001  0.919E-01  0.919E-01
  -3.991  0.817E-01  0.817E-01
  -3.981  0.722E-01  0.722E-01
  -3.971  0.637E-01  0.637E-01
  -3.961  0.561E-01  0.561E-01
  -3.951  0.497E-01  0.497E-01
  -3.941  0.446E-01  0.446E-01
  -3.931  0.407E-01  0.407E-01
  -3.921  0.381E-01  0.381E-01
  -3.911  0.369E-01  0.369E-01
  -3.901  0.370E-01  0.370E-01
  -3.891  0.385E-01  0.385E-01
  -3.881  0.413E-01  0.413E-01
  -3.871  0.454E-01  0.454E-01
  -3.861  0.508E-01  0.508E-01
  -3.851  0.573E-01  0.573E-01
  -3.841  0.651E-01  0.651E-01
  -3.831  0.738E-01  0.738E-01
  -3.821  0.834E-01  0.834E-01
  -3.811  0.938E-01  0.938E-01
  -3.801  0.105E+00  0.105E+00
  -3.791  0.116E+00  0.116E+00
  -3.781  0.128E+00  0.128E+00
  -3.771  0.140E+00  0.140E+00
  -3.761  0.151E+00  0.151E+00
  -3.751  0.162E+00  0.162E+00
  -3.741  0.172E+00  0.172E+00
  -3.731  0.182E+00  0.182E+00
  -3.721  0.191E+00  0.191E+00
  -3.711  0.198E+00  0.198E+00
  -3.701  0.204E+00  0.204E+00
  -3.691  0.209E+00  0.209E+00
  -3.681  0.212E+00  0.212E+00
  -3.671  0.214E+00  0.214E+00
  -3.661  0.214E+00  0.214E+00
  -3.651  0.214E+00  0.214E+00
  -3.641  0.211E+00  0.211E+00
  -3.631  0.208E+00  0.208E+00
  -3.621  0.203E+00  0.203E+00
  -3.611  0.198E+00  0.198E+00
  -3.601  0.191E+00  0.191E+00
  -3.591  0.184E+00  0.184E+00
  -3.581  0.175E+00  0.175E+00
  -3.571  0.167E+00  0.167E+00
  -3.561  0.158E+00  0.158E+00
  -3.551  0.149E+00  0.149E+00
  -3.541  0.139E+00  0.139E+00
  -3.531  0.129E+00  0.129E+00
  -3.521  0.120E+00  0.120E+00
  -3.511  0.111E+00  0.111E+00
  -3.501  0.102E+00  0.102E+00
  -3.491  0.930E-01  0.930E-01
  -3.481  0.850E-01  0.850E-01
  -3.471  0.776E-01  0.776E-01
  -3.461  0.709E-01  0.709E-01
  -3.451  0.651E-01  0.651E-01
  -3.441  0.600E-01  0.600E-01
  -3.431  0.559E-01  0.559E-01
  -3.421  0.528E-01  0.528E-01
  -3.411  0.505E-01  0.505E-01
  -3.401  0.491E-01  0.491E-01
  -3.391  0.485E-01  0.485E-01
  -3.381  0.487E-01  0.487E-01
  -3.371  0.496E-01  0.496E-01
  -3.361  0.510E-01  0.510E-01
  -3.351  0.529E-01  0.529E-01
  -3.341  0.550E-01  0.550E-01
  -3.331  0.574E-01  0.574E-01
  -3.321  0.598E-01  0.598E-01
  -3.311  0.622E-01  0.622E-01
  -3.301  0.644E-01  0.644E-01
  -3.291  0.663E-01  0.663E-01
  -3.281  0.679E-01  0.679E-01
  -3.271  0.692E-01  0.692E-01
  -3.261  0.701E-01  0.701E-01
  -3.251  0.706E-01  0.706E-01
  -3.241  0.707E-01  0.707E-01
  -3.231  0.706E-01  0.706E-01
  -3.221  0.703E-01  0.703E-01
  -3.211  0.697E-01  0.697E-01
  -3.201  0.691E-01  0.691E-01
  -3.191  0.685E-01  0.685E-01
  -3.181  0.679E-01  0.679E-01
  -3.171  0.674E-01  0.674E-01
  -3.161  0.671E-01  0.671E-01
  -3.151  0.669E-01  0.669E-01
  -3.141  0.668E-01  0.668E-01
  -3.131  0.669E-01  0.669E-01
  -3.121  0.671E-01  0.671E-01
  -3.111  0.674E-01  0.674E-01
  -3.101  0.676E-01  0.676E-01
  -3.091  0.678E-01  0.678E-01
  -3.081  0.679E-01  0.679E-01
  -3.071  0.680E-01  0.680E-01
  -3.061  0.678E-01  0.678E-01
  -3.051  0.675E-01  0.675E-01
  -3.041  0.671E-01  0.671E-01
  -3.031  0.665E-01  0.665E-01
  -3.021  0.659E-01  0.659E-01
  -3.011  0.652E-01  0.652E-01
  -3.001  0.646E-01  0.646E-01
  -2.991  0.640E-01  0.640E-01
  -2.981  0.636E-01  0.636E-01
  -2.971  0.633E-01  0.633E-01
  -2.961  0.633E-01  0.633E-01
  -2.951  0.635E-01  0.635E-01
  -2.941  0.639E-01  0.639E-01
  -2.931  0.644E-01  0.644E-01
  -2.921  0.652E-01  0.652E-01
  -2.911  0.660E-01  0.660E-01
  -2.901  0.668E-01  0.668E-01
  -2.891  0.676E-01  0.676E-01
  -2.881  0.681E-01  0.681E-01
  -2.871  0.685E-01  0.685E-01
  -2.861  0.685E-01  0.685E-01
  -2.851  0.681E-01  0.681E-01
  -2.841  0.672E-01  0.672E-01
  -2.831  0.659E-01  0.659E-01
  -2.821  0.640E-01  0.640E-01
  -2.811  0.617E-01  0.617E-01
  -2.801  0.590E-01  0.590E-01
  -2.791  0.559E-01  0.559E-01
  -2.781  0.525E-01  0.525E-01
  -2.771  0.488E-01  0.488E-01
  -2.761  0.451E-01  0.451E-01
  -2.751  0.413E-01  0.413E-01
  -2.741  0.376E-01  0.376E-01
  -2.731  0.340E-01  0.340E-01
  -2.721  0.308E-01  0.308E-01
  -2.711  0.279E-01  0.279E-01
  -2.701  0.255E-01  0.255E-01
  -2.691  0.237E-01  0.237E-01
  -2.681  0.225E-01  0.225E-01
  -2.671  0.220E-01  0.220E-01
  -2.661  0.223E-01  0.223E-01
  -2.651  0.235E-01  0.235E-01
  -2.641  0.255E-01  0.255E-01
  -2.631  0.286E-01  0.286E-01
  -2.621  0.328E-01  0.328E-01
  -2.611  0.380E-01  0.380E-01
  -2.601  0.444E-01  0.444E-01
  -2.591  0.521E-01  0.521E-01
  -2.581  0.610E-01  0.610E-01
  -2.571  0.711E-01  0.711E-01
  -2.561  0.826E-01  0.826E-01
  -2.551  0.953E-01  0.953E-01
  -2.541  0.109E+00  0.109E+00
  -2.531  0.124E+00  0.124E+00
  -2.521  0.140E+00  0.140E+00
  -2.511  0.157E+00  0.157E+00
  -2.501  0.175E+00  0.175E+00
  -2.491  0.194E+00  0.194E+00
  -2.481  0.213E+00  0.213E+00
  -2.471  0.232E+00  0.232E+00
  -2.461  0.251E+00  0.251E+00
  -2.451  0.269E+00  0.269E+00
  -2.441  0.287E+00  0.287E+00
  -2.431  0.304E+00  0.304E+00
  -2.421  0.320E+00  0.320E+00
  -2.411  0.335E+00  0.335E+00
  -2.401  0.349E+00  0.349E+00
  -2.391  0.360E+00  0.360E+00
  -2.381  0.370E+00  0.370E+00
  -2.371  0.378E+00  0.378E+00
  -2.361  0.384E+00  0.384E+00
  -2.351  0.387E+00  0.387E+00
  -2.341  0.389E+00  0.389E+00
  -2.331  0.389E+00  0.389E+00
  -2.321  0.387E+00  0.387E+00
  -2.311  0.383E+00  0.383E+00
  -2.301  0.377E+00  0.377E+00
  -2.291  0.371E+00  0.371E+00
  -2.281  0.363E+00  0.363E+00
  -2.271  0.353E+00  0.353E+00
  -2.261  0.344E+00  0.344E+00
  -2.251  0.333E+00  0.333E+00
  -2.241  0.322E+00  0.322E+00
  -2.231  0.310E+00  0.310E+00
  -2.221  0.299E+00  0.299E+00
  -2.211  0.287E+00  0.287E+00
  -2.201  0.275E+00  0.275E+00
  -2.191  0.263E+00  0.263E+00
  -2.181  0.252E+00  0.252E+00
  -2.171  0.240E+00  0.240E+00
  -2.161  0.229E+00  0.229E+00
  -2.151  0.218E+00  0.218E+00
  -2.141  0.207E+00  0.207E+00
  -2.131  0.197E+00  0.197E+00
  -2.121  0.186E+00  0.186E+00
  -2.111  0.176E+00  0.176E+00
  -2.101  0.167E+00  0.167E+00
  -2.091  0.157E+00  0.157E+00
  -2.081  0.149E+00  0.149E+00
  -2.071  0.140E+00  0.140E+00
  -2.061  0.133E+00  0.133E+00
  -2.051  0.125E+00  0.125E+00
  -2.041  0.119E+00  0.119E+00
  -2.031  0.113E+00  0.113E+00
  -2.021  0.108E+00  0.108E+00
  -2.011  0.103E+00  0.103E+00
  -2.001  0.986E-01  0.986E-01
  -1.991  0.950E-01  0.950E-01
  -1.981  0.920E-01  0.920E-01
  -1.971  0.895E-01  0.895E-01
  -1.961  0.874E-01  0.874E-01
  -1.951  0.858E-01  0.858E-01
  -1.941  0.847E-01  0.847E-01
  -1.931  0.840E-01  0.840E-01
  -1.921  0.838E-01  0.838E-01
  -1.911  0.840E-01  0.840E-01
  -1.901  0.847E-01  0.847E-01
  -1.891  0.858E-01  0.858E-01
  -1.881  0.874E-01  0.874E-01
  -1.871  0.893E-01  0.893E-01
  -1.861  0.917E-01  0.917E-01
  -1.851  0.944E-01  0.944E-01
  -1.841  0.974E-01  0.974E-01
  -1.831  0.100E+00  0.100E+00
  -1.821  0.104E+00  0.104E+00
  -1.811  0.107E+00  0.107E+00
  -1.801  0.110E+00  0.110E+00
  -1.791  0.112E+00  0.112E+00
  -1.781  0.114E+00  0.114E+00
  -1.771  0.116E+00  0.116E+00
  -1.761  0.116E+00  0.116E+00
  -1.751  0.116E+00  0.116E+00
  -1.741  0.116E+00  0.116E+00
  -1.731  0.114E+00  0.114E+00
  -1.721  0.112E+00  0.112E+00
  -1.711  0.109E+00  0.109E+00
  -1.701  0.106E+00  0.106E+00
  -1.691  0.103E+00  0.103E+00
  -1.681  0.986E-01  0.986E-01
  -1.671  0.945E-01  0.945E-01
  -1.661  0.905E-01  0.905E-01
  -1.651  0.866E-01  0.866E-01
  -1.641  0.829E-01  0.829E-01
  -1.631  0.795E-01  0.795E-01
  -1.621  0.765E-01  0.765E-01
  -1.611  0.740E-01  0.740E-01
  -1.601  0.718E-01  0.718E-01
  -1.591  0.700E-01  0.700E-01
  -1.581  0.685E-01  0.685E-01
  -1.571  0.673E-01  0.673E-01
  -1.561  0.663E-01  0.663E-01
  -1.551  0.654E-01  0.654E-01
  -1.541  0.645E-01  0.645E-01
  -1.531  0.637E-01  0.637E-01
  -1.521  0.627E-01  0.627E-01
  -1.511  0.617E-01  0.617E-01
  -1.501  0.606E-01  0.606E-01
  -1.491  0.595E-01  0.595E-01
  -1.481  0.582E-01  0.582E-01
  -1.471  0.570E-01  0.570E-01
  -1.461  0.559E-01  0.559E-01
  -1.451  0.549E-01  0.549E-01
  -1.441  0.541E-01  0.541E-01
  -1.431  0.535E-01  0.535E-01
  -1.421  0.533E-01  0.533E-01
  -1.411  0.534E-01  0.534E-01
  -1.401  0.540E-01  0.540E-01
  -1.391  0.549E-01  0.549E-01
  -1.381  0.563E-01  0.563E-01
  -1.371  0.581E-01  0.581E-01
  -1.361  0.603E-01  0.603E-01
  -1.351  0.628E-01  0.628E-01
  -1.341  0.655E-01  0.655E-01
  -1.331  0.686E-01  0.686E-01
  -1.321  0.719E-01  0.719E-01
  -1.311  0.753E-01  0.753E-01
  -1.301  0.789E-01  0.789E-01
  -1.291  0.826E-01  0.826E-01
  -1.281  0.865E-01  0.865E-01
  -1.271  0.905E-01  0.905E-01
  -1.261  0.947E-01  0.947E-01
  -1.251  0.991E-01  0.991E-01
  -1.241  0.104E+00  0.104E+00
  -1.231  0.109E+00  0.109E+00
  -1.221  0.114E+00  0.114E+00
  -1.211  0.119E+00  0.119E+00
  -1.201  0.125E+00  0.125E+00
  -1.191  0.132E+00  0.132E+00
  -1.181  0.138E+00  0.138E+00
  -1.171  0.146E+00  0.146E+00
  -1.161  0.153E+00  0.153E+00
  -1.151  0.161E+00  0.161E+00
  -1.141  0.169E+00  0.169E+00
  -1.131  0.177E+00  0.177E+00
  -1.121  0.186E+00  0.186E+00
  -1.111  0.195E+00  0.195E+00
  -1.101  0.203E+00  0.203E+00
  -1.091  0.212E+00  0.212E+00
  -1.081  0.220E+00  0.220E+00
  -1.071  0.229E+00  0.229E+00
  -1.061  0.237E+00  0.237E+00
  -1.051  0.245E+00  0.245E+00
  -1.041  0.253E+00  0.253E+00
  -1.031  0.260E+00  0.260E+00
  -1.021  0.268E+00  0.268E+00
  -1.011  0.274E+00  0.274E+00
  -1.001  0.281E+00  0.281E+00
  -0.991  0.287E+00  0.287E+00
  -0.981  0.293E+00  0.293E+00
  -0.971  0.297E+00  0.297E+00
  -0.961  0.302E+00  0.302E+00
  -0.951  0.305E+00  0.305E+00
  -0.941  0.308E+00  0.308E+00
  -0.931  0.309E+00  0.309E+00
  -0.921  0.309E+00  0.309E+00
  -0.911  0.308E+00  0.308E+00
  -0.901  0.306E+00  0.306E+00
  -0.891  0.302E+00  0.302E+00
  -0.881  0.297E+00  0.297E+00
  -0.871  0.290E+00  0.290E+00
  -0.861  0.281E+00  0.281E+00
  -0.851  0.271E+00  0.271E+00
  -0.841  0.260E+00  0.260E+00
  -0.831  0.248E+00  0.248E+00
  -0.821  0.235E+00  0.235E+00
  -0.811  0.221E+00  0.221E+00
  -0.801  0.207E+00  0.207E+00
  -0.791  0.192E+00  0.192E+00
  -0.781  0.177E+00  0.177E+00
  -0.771  0.163E+00  0.163E+00
  -0.761  0.149E+00  0.149E+00
  -0.751  0.136E+00  0.136E+00
  -0.741  0.124E+00  0.124E+00
  -0.731  0.112E+00  0.112E+00
  -0.721  0.101E+00  0.101E+00
  -0.711  0.918E-01  0.918E-01
  -0.701  0.832E-01  0.832E-01
  -0.691  0.757E-01  0.757E-01
  -0.681  0.693E-01  0.693E-01
  -0.671  0.638E-01  0.638E-01
  -0.661  0.592E-01  0.592E-01
  -0.651  0.555E-01  0.555E-01
  -0.641  0.526E-01  0.526E-01
  -0.631  0.505E-01  0.505E-01
  -0.621  0.489E-01  0.489E-01
  -0.611  0.480E-01  0.480E-01
  -0.601  0.475E-01  0.475E-01
  -0.591  0.474E-01  0.474E-01
  -0.581  0.477E-01  0.477E-01
  -0.571  0.481E-01  0.481E-01
  -0.561  0.487E-01  0.487E-01
  -0.551  0.494E-01  0.494E-01
  -0.541  0.501E-01  0.501E-01
  -0.531  0.507E-01  0.507E-01
  -0.521  0.511E-01  0.511E-01
  -0.511  0.514E-01  0.514E-01
  -0.501  0.515E-01  0.515E-01
  -0.491  0.515E-01  0.515E-01
  -0.481  0.512E-01  0.512E-01
  -0.471  0.507E-01  0.507E-01
  -0.461  0.501E-01  0.501E-01
  -0.451  0.494E-01  0.494E-01
  -0.441  0.487E-01  0.487E-01
  -0.431  0.481E-01  0.481E-01
  -0.421  0.475E-01  0.475E-01
  -0.411  0.471E-01  0.471E-01
  -0.401  0.468E-01  0.468E-01
  -0.391  0.469E-01  0.469E-01
  -0.381  0.472E-01  0.472E-01
  -0.371  0.477E-01  0.477E-01
  -0.361  0.486E-01  0.486E-01
  -0.351  0.497E-01  0.497E-01
  -0.341  0.510E-01  0.510E-01
  -0.331  0.525E-01  0.525E-01
  -0.321  0.541E-01  0.541E-01
  -0.311  0.558E-01  0.558E-01
  -0.301  0.575E-01  0.575E-01
  -0.291  0.592E-01  0.592E-01
  -0.281  0.608E-01  0.608E-01
  -0.271  0.623E-01  0.623E-01
  -0.261  0.638E-01  0.638E-01
  -0.251  0.652E-01  0.652E-01
  -0.241  0.665E-01  0.665E-01
  -0.231  0.677E-01  0.677E-01
  -0.221  0.689E-01  0.689E-01
  -0.211  0.701E-01  0.701E-01
  -0.201  0.712E-01  0.712E-01
  -0.191  0.724E-01  0.724E-01
  -0.181  0.736E-01  0.736E-01
  -0.171  0.749E-01  0.749E-01
  -0.161  0.761E-01  0.761E-01
  -0.151  0.772E-01  0.772E-01
  -0.141  0.782E-01  0.782E-01
  -0.131  0.790E-01  0.790E-01
  -0.121  0.796E-01  0.796E-01
  -0.111  0.799E-01  0.799E-01
  -0.101  0.798E-01  0.798E-01
  -0.091  0.792E-01  0.792E-01
  -0.081  0.782E-01  0.782E-01
  -0.071  0.766E-01  0.766E-01
  -0.061  0.744E-01  0.744E-01
  -0.051  0.718E-01  0.718E-01
  -0.041  0.686E-01  0.686E-01
  -0.031  0.651E-01  0.651E-01
  -0.021  0.611E-01  0.611E-01
  -0.011  0.568E-01  0.568E-01
  -0.001  0.523E-01  0.523E-01
   0.009  0.477E-01  0.477E-01
   0.019  0.431E-01  0.431E-01
   0.029  0.385E-01  0.385E-01
   0.039  0.341E-01  0.341E-01
   0.049  0.299E-01  0.299E-01
   0.059  0.259E-01  0.259E-01
   0.069  0.222E-01  0.222E-01
   0.079  0.189E-01  0.189E-01
   0.089  0.160E-01  0.160E-01
   0.099  0.133E-01  0.133E-01
   0.109  0.111E-01  0.111E-01
   0.119  0.921E-02  0.921E-02
   0.129  0.766E-02  0.766E-02
   0.139  0.644E-02  0.644E-02
   0.149  0.553E-02  0.553E-02
   0.159  0.491E-02  0.491E-02
   0.169  0.457E-02  0.457E-02
   0.179  0.450E-02  0.450E-02
   0.189  0.470E-02  0.470E-02
   0.199  0.516E-02  0.516E-02
   0.209  0.589E-02  0.589E-02
   0.219  0.688E-02  0.688E-02
   0.229  0.815E-02  0.815E-02
   0.239  0.969E-02  0.969E-02
   0.249  0.115E-01  0.115E-01
   0.259  0.136E-01  0.136E-01
   0.269  0.161E-01  0.161E-01
   0.279  0.187E-01  0.187E-01
   0.289  0.217E-01  0.217E-01
   0.299  0.249E-01  0.249E-01
   0.309  0.284E-01  0.284E-01
   0.319  0.320E-01  0.320E-01
   0.329  0.358E-01  0.358E-01
   0.339  0.398E-01  0.398E-01
   0.349  0.438E-01  0.438E-01
   0.359  0.478E-01  0.478E-01
   0.369  0.517E-01  0.517E-01
   0.379  0.556E-01  0.556E-01
   0.389  0.592E-01  0.592E-01
   0.399  0.627E-01  0.627E-01
   0.409  0.658E-01  0.658E-01
   0.419  0.686E-01  0.686E-01
   0.429  0.711E-01  0.711E-01
   0.439  0.731E-01  0.731E-01
   0.449  0.747E-01  0.747E-01
   0.459  0.758E-01  0.758E-01
   0.469  0.764E-01  0.764E-01
   0.479  0.765E-01  0.765E-01
   0.489  0.762E-01  0.762E-01
   0.499  0.754E-01  0.754E-01
   0.509  0.742E-01  0.742E-01
   0.519  0.726E-01  0.726E-01
   0.529  0.707E-01  0.707E-01
   0.539  0.686E-01  0.686E-01
   0.549  0.662E-01  0.662E-01
   0.559  0.637E-01  0.637E-01
   0.569  0.611E-01  0.611E-01
   0.579  0.586E-01  0.586E-01
   0.589  0.561E-01  0.561E-01
   0.599  0.536E-01  0.536E-01
   0.609  0.514E-01  0.514E-01
   0.619  0.493E-01  0.493E-01
   0.629  0.473E-01  0.473E-01
   0.639  0.456E-01  0.456E-01
   0.649  0.441E-01  0.441E-01
   0.659  0.427E-01  0.427E-01
   0.669  0.415E-01  0.415E-01
   0.679  0.404E-01  0.404E-01
   0.689  0.395E-01  0.395E-01
   0.699  0.386E-01  0.386E-01
   0.709  0.377E-01  0.377E-01
   0.719  0.369E-01  0.369E-01
   0.729  0.361E-01  0.361E-01
   0.739  0.353E-01  0.353E-01
   0.749  0.346E-01  0.346E-01
   0.759  0.339E-01  0.339E-01
   0.769  0.333E-01  0.333E-01
   0.779  0.328E-01  0.328E-01
   0.789  0.324E-01  0.324E-01
   0.799  0.322E-01  0.322E-01
   0.809  0.322E-01  0.322E-01
   0.819  0.323E-01  0.323E-01
   0.829  0.327E-01  0.327E-01
   0.839  0.332E-01  0.332E-01
   0.849  0.339E-01  0.339E-01
   0.859  0.347E-01  0.347E-01
   0.869  0.356E-01  0.356E-01
   0.879  0.366E-01  0.366E-01
   0.889  0.376E-01  0.376E-01
   0.899  0.384E-01  0.384E-01
   0.909  0.392E-01  0.392E-01
   0.919  0.397E-01  0.397E-01
   0.929  0.400E-01  0.400E-01
   0.939  0.401E-01  0.401E-01
   0.949  0.398E-01  0.398E-01
   0.959  0.392E-01  0.392E-01
   0.969  0.382E-01  0.382E-01
   0.979  0.370E-01  0.370E-01
   0.989  0.354E-01  0.354E-01
   0.999  0.336E-01  0.336E-01
   1.009  0.316E-01  0.316E-01
   1.019  0.295E-01  0.295E-01
   1.029  0.273E-01  0.273E-01
   1.039  0.250E-01  0.250E-01
   1.049  0.228E-01  0.228E-01
   1.059  0.206E-01  0.206E-01
   1.069  0.187E-01  0.187E-01
   1.079  0.169E-01  0.169E-01
   1.089  0.154E-01  0.154E-01
   1.099  0.141E-01  0.141E-01
   1.109  0.132E-01  0.132E-01
   1.119  0.127E-01  0.127E-01
   1.129  0.125E-01  0.125E-01
   1.139  0.127E-01  0.127E-01
   1.149  0.133E-01  0.133E-01
   1.159  0.143E-01  0.143E-01
   1.169  0.156E-01  0.156E-01
   1.179  0.172E-01  0.172E-01
   1.189  0.192E-01  0.192E-01
   1.199  0.215E-01  0.215E-01
   1.209  0.240E-01  0.240E-01
   1.219  0.266E-01  0.266E-01
   1.229  0.294E-01  0.294E-01
   1.239  0.322E-01  0.322E-01
   1.249  0.350E-01  0.350E-01
   1.259  0.376E-01  0.376E-01
   1.269  0.402E-01  0.402E-01
   1.279  0.425E-01  0.425E-01
   1.289  0.445E-01  0.445E-01
   1.299  0.462E-01  0.462E-01
   1.309  0.475E-01  0.475E-01
   1.319  0.485E-01  0.485E-01
   1.329  0.491E-01  0.491E-01
   1.339  0.494E-01  0.494E-01
   1.349  0.493E-01  0.493E-01
   1.359  0.490E-01  0.490E-01
   1.369  0.486E-01  0.486E-01
   1.379  0.480E-01  0.480E-01
   1.389  0.473E-01  0.473E-01
   1.399  0.467E-01  0.467E-01
   1.409  0.462E-01  0.462E-01
   1.419  0.459E-01  0.459E-01
   1.429  0.458E-01  0.458E-01
   1.439  0.459E-01  0.459E-01
   1.449  0.464E-01  0.464E-01
   1.459  0.471E-01  0.471E-01
   1.469  0.480E-01  0.480E-01
   1.479  0.492E-01  0.492E-01
   1.489  0.506E-01  0.506E-01
   1.499  0.522E-01  0.522E-01
   1.509  0.538E-01  0.538E-01
   1.519  0.554E-01  0.554E-01
   1.529  0.569E-01  0.569E-01
   1.539  0.583E-01  0.583E-01
   1.549  0.594E-01  0.594E-01
   1.559  0.603E-01  0.603E-01
   1.569  0.609E-01  0.609E-01
   1.579  0.611E-01  0.611E-01
   1.589  0.610E-01  0.610E-01
   1.599  0.604E-01  0.604E-01
   1.609  0.594E-01  0.594E-01
   1.619  0.581E-01  0.581E-01
   1.629  0.563E-01  0.563E-01
   1.639  0.543E-01  0.543E-01
   1.649  0.519E-01  0.519E-01
   1.659  0.493E-01  0.493E-01
   1.669  0.465E-01  0.465E-01
   1.679  0.436E-01  0.436E-01
   1.689  0.406E-01  0.406E-01
   1.699  0.376E-01  0.376E-01
   1.709  0.346E-01  0.346E-01
   1.719  0.317E-01  0.317E-01
   1.729  0.289E-01  0.289E-01
   1.739  0.262E-01  0.262E-01
   1.749  0.238E-01  0.238E-01
   1.759  0.215E-01  0.215E-01
   1.769  0.195E-01  0.195E-01
   1.779  0.177E-01  0.177E-01
   1.789  0.161E-01  0.161E-01
   1.799  0.147E-01  0.147E-01
   1.809  0.135E-01  0.135E-01
   1.819  0.125E-01  0.125E-01
   1.829  0.117E-01  0.117E-01
   1.839  0.110E-01  0.110E-01
   1.849  0.105E-01  0.105E-01
   1.859  0.101E-01  0.101E-01
   1.869  0.986E-02  0.986E-02
   1.879  0.975E-02  0.975E-02
   1.889  0.979E-02  0.979E-02
   1.899  0.100E-01  0.100E-01
   1.909  0.104E-01  0.104E-01
   1.919  0.110E-01  0.110E-01
   1.929  0.118E-01  0.118E-01
   1.939  0.128E-01  0.128E-01
   1.949  0.142E-01  0.142E-01
   1.959  0.158E-01  0.158E-01
   1.969  0.178E-01  0.178E-01
   1.979  0.202E-01  0.202E-01
   1.989  0.229E-01  0.229E-01
   1.999  0.260E-01  0.260E-01
   2.009  0.294E-01  0.294E-01
   2.019  0.332E-01  0.332E-01
   2.029  0.373E-01  0.373E-01
   2.039  0.416E-01  0.416E-01
   2.049  0.461E-01  0.461E-01
   2.059  0.508E-01  0.508E-01
   2.069  0.554E-01  0.554E-01
   2.079  0.600E-01  0.600E-01
   2.089  0.644E-01  0.644E-01
   2.099  0.685E-01  0.685E-01
   2.109  0.722E-01  0.722E-01
   2.119  0.754E-01  0.754E-01
   2.129  0.780E-01  0.780E-01
   2.139  0.799E-01  0.799E-01
   2.149  0.811E-01  0.811E-01
   2.159  0.815E-01  0.815E-01
   2.169  0.812E-01  0.812E-01
   2.179  0.801E-01  0.801E-01
   2.189  0.782E-01  0.782E-01
   2.199  0.757E-01  0.757E-01
   2.209  0.726E-01  0.726E-01
   2.219  0.689E-01  0.689E-01
   2.229  0.648E-01  0.648E-01
   2.239  0.604E-01  0.604E-01
   2.249  0.558E-01  0.558E-01
   2.259  0.510E-01  0.510E-01
   2.269  0.463E-01  0.463E-01
   2.279  0.416E-01  0.416E-01
   2.289  0.371E-01  0.371E-01
   2.299  0.328E-01  0.328E-01
   2.309  0.288E-01  0.288E-01
   2.319  0.251E-01  0.251E-01
   2.329  0.218E-01  0.218E-01
   2.339  0.188E-01  0.188E-01
   2.349  0.163E-01  0.163E-01
   2.359  0.142E-01  0.142E-01
   2.369  0.125E-01  0.125E-01
   2.379  0.111E-01  0.111E-01
   2.389  0.102E-01  0.102E-01
   2.399  0.955E-02  0.955E-02
   2.409  0.929E-02  0.929E-02
   2.419  0.935E-02  0.935E-02
   2.429  0.973E-02  0.973E-02
   2.439  0.104E-01  0.104E-01
   2.449  0.113E-01  0.113E-01
   2.459  0.125E-01  0.125E-01
   2.469  0.139E-01  0.139E-01
   2.479  0.154E-01  0.154E-01
   2.489  0.171E-01  0.171E-01
   2.499  0.190E-01  0.190E-01
   2.509  0.209E-01  0.209E-01
   2.519  0.228E-01  0.228E-01
   2.529  0.248E-01  0.248E-01
   2.539  0.267E-01  0.267E-01
   2.549  0.285E-01  0.285E-01
   2.559  0.302E-01  0.302E-01
   2.569  0.317E-01  0.317E-01
   2.579  0.329E-01  0.329E-01
   2.589  0.339E-01  0.339E-01
   2.599  0.347E-01  0.347E-01
   2.609  0.352E-01  0.352E-01
   2.619  0.354E-01  0.354E-01
   2.629  0.353E-01  0.353E-01
   2.639  0.350E-01  0.350E-01
   2.649  0.345E-01  0.345E-01
   2.659  0.338E-01  0.338E-01
   2.669  0.330E-01  0.330E-01
   2.679  0.322E-01  0.322E-01
   2.689  0.314E-01  0.314E-01
   2.699  0.307E-01  0.307E-01
   2.709  0.301E-01  0.301E-01
   2.719  0.298E-01  0.298E-01
   2.729  0.297E-01  0.297E-01
   2.739  0.300E-01  0.300E-01
   2.749  0.307E-01  0.307E-01
   2.759  0.318E-01  0.318E-01
   2.769  0.333E-01  0.333E-01
   2.779  0.353E-01  0.353E-01
   2.789  0.376E-01  0.376E-01
   2.799  0.403E-01  0.403E-01
   2.809  0.434E-01  0.434E-01
   2.819  0.467E-01  0.467E-01
   2.829  0.502E-01  0.502E-01
   2.839  0.538E-01  0.538E-01
   2.849  0.574E-01  0.574E-01
   2.859  0.609E-01  0.609E-01
   2.869  0.641E-01  0.641E-01
   2.879  0.671E-01  0.671E-01
   2.889  0.697E-01  0.697E-01
   2.899  0.718E-01  0.718E-01
   2.909  0.734E-01  0.734E-01
   2.919  0.744E-01  0.744E-01
   2.929  0.747E-01  0.747E-01
   2.939  0.745E-01  0.745E-01
   2.949  0.735E-01  0.735E-01
   2.959  0.720E-01  0.720E-01
   2.969  0.699E-01  0.699E-01
   2.979  0.672E-01  0.672E-01
   2.989  0.641E-01  0.641E-01
   2.999  0.607E-01  0.607E-01
   3.009  0.569E-01  0.569E-01
   3.019  0.529E-01  0.529E-01
   3.029  0.487E-01  0.487E-01
   3.039  0.445E-01  0.445E-01
   3.049  0.404E-01  0.404E-01
   3.059  0.363E-01  0.363E-01
   3.069  0.324E-01  0.324E-01
   3.079  0.287E-01  0.287E-01
   3.089  0.252E-01  0.252E-01
   3.099  0.220E-01  0.220E-01
   3.109  0.191E-01  0.191E-01
   3.119  0.164E-01  0.164E-01
   3.129  0.141E-01  0.141E-01
   3.139  0.120E-01  0.120E-01
   3.149  0.103E-01  0.103E-01
   3.159  0.871E-02  0.871E-02
   3.169  0.740E-02  0.740E-02
   3.179  0.630E-02  0.630E-02
   3.189  0.538E-02  0.538E-02
   3.199  0.463E-02  0.463E-02
   3.209  0.402E-02  0.402E-02
   3.219  0.352E-02  0.352E-02
   3.229  0.314E-02  0.314E-02
   3.239  0.283E-02  0.283E-02
   3.249  0.261E-02  0.261E-02
   3.259  0.244E-02  0.244E-02
   3.269  0.233E-02  0.233E-02
   3.279  0.227E-02  0.227E-02
   3.289  0.226E-02  0.226E-02
   3.299  0.230E-02  0.230E-02
   3.309  0.238E-02  0.238E-02
   3.319  0.252E-02  0.252E-02
   3.329  0.271E-02  0.271E-02
   3.339  0.297E-02  0.297E-02
   3.349  0.331E-02  0.331E-02
   3.359  0.373E-02  0.373E-02
   3.369  0.426E-02  0.426E-02
   3.379  0.489E-02  0.489E-02
   3.389  0.564E-02  0.564E-02
   3.399  0.653E-02  0.653E-02
   3.409  0.757E-02  0.757E-02
   3.419  0.876E-02  0.876E-02
   3.429  0.101E-01  0.101E-01
   3.439  0.117E-01  0.117E-01
   3.449  0.134E-01  0.134E-01
   3.459  0.153E-01  0.153E-01
   3.469  0.174E-01  0.174E-01
   3.479  0.197E-01  0.197E-01
   3.489  0.222E-01  0.222E-01
   3.499  0.248E-01  0.248E-01
   3.509  0.277E-01  0.277E-01
   3.519  0.307E-01  0.307E-01
   3.529  0.338E-01  0.338E-01
   3.539  0.370E-01  0.370E-01
   3.549  0.403E-01  0.403E-01
   3.559  0.436E-01  0.436E-01
   3.569  0.470E-01  0.470E-01
   3.579  0.503E-01  0.503E-01
   3.589  0.535E-01  0.535E-01
   3.599  0.565E-01  0.565E-01
   3.609  0.594E-01  0.594E-01
   3.619  0.621E-01  0.621E-01
   3.629  0.645E-01  0.645E-01
   3.639  0.666E-01  0.666E-01
   3.649  0.683E-01  0.683E-01
   3.659  0.697E-01  0.697E-01
   3.669  0.706E-01  0.706E-01
   3.679  0.711E-01  0.711E-01
   3.689  0.712E-01  0.712E-01
   3.699  0.707E-01  0.707E-01
   3.709  0.699E-01  0.699E-01
   3.719  0.685E-01  0.685E-01
   3.729  0.668E-01  0.668E-01
   3.739  0.646E-01  0.646E-01
   3.749  0.621E-01  0.621E-01
   3.759  0.592E-01  0.592E-01
   3.769  0.561E-01  0.561E-01
   3.779  0.528E-01  0.528E-01
   3.789  0.492E-01  0.492E-01
   3.799  0.456E-01  0.456E-01
   3.809  0.419E-01  0.419E-01
   3.819  0.382E-01  0.382E-01
   3.829  0.346E-01  0.346E-01
   3.839  0.311E-01  0.311E-01
   3.849  0.277E-01  0.277E-01
   3.859  0.246E-01  0.246E-01
   3.869  0.217E-01  0.217E-01
   3.879  0.191E-01  0.191E-01
   3.889  0.167E-01  0.167E-01
   3.899  0.147E-01  0.147E-01
   3.909  0.129E-01  0.129E-01
   3.919  0.114E-01  0.114E-01
   3.929  0.101E-01  0.101E-01
   3.939  0.916E-02  0.916E-02
   3.949  0.840E-02  0.840E-02
   3.959  0.785E-02  0.785E-02
   3.969  0.747E-02  0.747E-02
   3.979  0.723E-02  0.723E-02
   3.989  0.711E-02  0.711E-02
   3.999  0.707E-02  0.707E-02
   4.009  0.709E-02  0.709E-02
   4.019  0.714E-02  0.714E-02
   4.029  0.720E-02  0.720E-02
   4.039  0.725E-02  0.725E-02
   4.049  0.728E-02  0.728E-02
   4.059  0.726E-02  0.726E-02
   4.069  0.721E-02  0.721E-02
   4.079  0.711E-02  0.711E-02
   4.089  0.696E-02  0.696E-02
   4.099  0.677E-02  0.677E-02
   4.109  0.655E-02  0.655E-02
   4.119  0.632E-02  0.632E-02
   4.129  0.608E-02  0.608E-02
   4.139  0.585E-02  0.585E-02
   4.149  0.565E-02  0.565E-02
   4.159  0.549E-02  0.549E-02
   4.169  0.541E-02  0.541E-02
   4.179  0.541E-02  0.541E-02
   4.189  0.551E-02  0.551E-02
   4.199  0.572E-02  0.572E-02
   4.209  0.607E-02  0.607E-02
   4.219  0.655E-02  0.655E-02
   4.229  0.717E-02  0.717E-02
   4.239  0.795E-02  0.795E-02
   4.249  0.887E-02  0.887E-02
   4.259  0.993E-02  0.993E-02
   4.269  0.111E-01  0.111E-01
   4.279  0.124E-01  0.124E-01
   4.289  0.138E-01  0.138E-01
   4.299  0.153E-01  0.153E-01
   4.309  0.169E-01  0.169E-01
   4.319  0.185E-01  0.185E-01
   4.329  0.202E-01  0.202E-01
   4.339  0.218E-01  0.218E-01
   4.349  0.234E-01  0.234E-01
   4.359  0.250E-01  0.250E-01
   4.369  0.266E-01  0.266E-01
   4.379  0.281E-01  0.281E-01
   4.389  0.295E-01  0.295E-01
   4.399  0.309E-01  0.309E-01
   4.409  0.322E-01  0.322E-01
   4.419  0.334E-01  0.334E-01
   4.429  0.345E-01  0.345E-01
   4.439  0.356E-01  0.356E-01
   4.449  0.365E-01  0.365E-01
   4.459  0.374E-01  0.374E-01
   4.469  0.382E-01  0.382E-01
   4.479  0.389E-01  0.389E-01
   4.489  0.394E-01  0.394E-01
   4.499  0.399E-01  0.399E-01
   4.509  0.402E-01  0.402E-01
   4.519  0.404E-01  0.404E-01
   4.529  0.404E-01  0.404E-01
   4.539  0.403E-01  0.403E-01
   4.549  0.400E-01  0.400E-01
   4.559  0.396E-01  0.396E-01
   4.569  0.391E-01  0.391E-01
   4.579  0.384E-01  0.384E-01
   4.589  0.376E-01  0.376E-01
   4.599  0.367E-01  0.367E-01
   4.609  0.358E-01  0.358E-01
   4.619  0.347E-01  0.347E-01
   4.629  0.337E-01  0.337E-01
   4.639  0.326E-01  0.326E-01
   4.649  0.314E-01  0.314E-01
   4.659  0.303E-01  0.303E-01
   4.669  0.291E-01  0.291E-01
   4.679  0.279E-01  0.279E-01
   4.689  0.267E-01  0.267E-01
   4.699  0.255E-01  0.255E-01
   4.709  0.243E-01  0.243E-01
   4.719  0.230E-01  0.230E-01
   4.729  0.217E-01  0.217E-01
   4.739  0.204E-01  0.204E-01
   4.749  0.190E-01  0.190E-01
   4.759  0.177E-01  0.177E-01
   4.769  0.163E-01  0.163E-01
   4.779  0.149E-01  0.149E-01
   4.789  0.136E-01  0.136E-01
   4.799  0.123E-01  0.123E-01
   4.809  0.110E-01  0.110E-01
   4.819  0.977E-02  0.977E-02
   4.829  0.862E-02  0.862E-02
   4.839  0.756E-02  0.756E-02
   4.849  0.659E-02  0.659E-02
   4.859  0.572E-02  0.572E-02
   4.869  0.496E-02  0.496E-02
   4.879  0.432E-02  0.432E-02
   4.889  0.379E-02  0.379E-02
   4.899  0.339E-02  0.339E-02
   4.909  0.311E-02  0.311E-02
   4.919  0.296E-02  0.296E-02
   4.929  0.294E-02  0.294E-02
   4.939  0.305E-02  0.305E-02
   4.949  0.328E-02  0.328E-02
   4.959  0.364E-02  0.364E-02
   4.969  0.413E-02  0.413E-02
   4.979  0.476E-02  0.476E-02
   4.989  0.551E-02  0.551E-02
   4.999  0.638E-02  0.638E-02
   5.009  0.738E-02  0.738E-02
   5.019  0.848E-02  0.848E-02
   5.029  0.969E-02  0.969E-02
   5.039  0.110E-01  0.110E-01
   5.049  0.124E-01  0.124E-01
   5.059  0.138E-01  0.138E-01
   5.069  0.153E-01  0.153E-01
   5.079  0.168E-01  0.168E-01
   5.089  0.183E-01  0.183E-01
   5.099  0.198E-01  0.198E-01
   5.109  0.213E-01  0.213E-01
   5.119  0.227E-01  0.227E-01
   5.129  0.240E-01  0.240E-01
   5.139  0.252E-01  0.252E-01
   5.149  0.263E-01  0.263E-01
   5.159  0.272E-01  0.272E-01
   5.169  0.280E-01  0.280E-01
   5.179  0.286E-01  0.286E-01
   5.189  0.290E-01  0.290E-01
   5.199  0.293E-01  0.293E-01
   5.209  0.293E-01  0.293E-01
   5.219  0.291E-01  0.291E-01
   5.229  0.288E-01  0.288E-01
   5.239  0.283E-01  0.283E-01
   5.249  0.276E-01  0.276E-01
   5.259  0.267E-01  0.267E-01
   5.269  0.256E-01  0.256E-01
   5.279  0.244E-01  0.244E-01
   5.289  0.231E-01  0.231E-01
   5.299  0.217E-01  0.217E-01
   5.309  0.202E-01  0.202E-01
   5.319  0.186E-01  0.186E-01
   5.329  0.171E-01  0.171E-01
   5.339  0.155E-01  0.155E-01
   5.349  0.140E-01  0.140E-01
   5.359  0.125E-01  0.125E-01
   5.369  0.111E-01  0.111E-01
   5.379  0.975E-02  0.975E-02
   5.389  0.854E-02  0.854E-02
   5.399  0.745E-02  0.745E-02
   5.409  0.649E-02  0.649E-02
   5.419  0.566E-02  0.566E-02
   5.429  0.498E-02  0.498E-02
   5.439  0.443E-02  0.443E-02
   5.449  0.401E-02  0.401E-02
   5.459  0.373E-02  0.373E-02
   5.469  0.358E-02  0.358E-02
   5.479  0.354E-02  0.354E-02
   5.489  0.361E-02  0.361E-02
   5.499  0.377E-02  0.377E-02
   5.509  0.403E-02  0.403E-02
   5.519  0.436E-02  0.436E-02
   5.529  0.476E-02  0.476E-02
   5.539  0.522E-02  0.522E-02
   5.549  0.571E-02  0.571E-02
   5.559  0.624E-02  0.624E-02
   5.569  0.678E-02  0.678E-02
   5.579  0.733E-02  0.733E-02
   5.589  0.788E-02  0.788E-02
   5.599  0.841E-02  0.841E-02
   5.609  0.893E-02  0.893E-02
   5.619  0.943E-02  0.943E-02
   5.629  0.990E-02  0.990E-02
   5.639  0.103E-01  0.103E-01
   5.649  0.108E-01  0.108E-01
   5.659  0.112E-01  0.112E-01
   5.669  0.115E-01  0.115E-01
   5.679  0.119E-01  0.119E-01
   5.689  0.122E-01  0.122E-01
   5.699  0.125E-01  0.125E-01
   5.709  0.128E-01  0.128E-01
   5.719  0.131E-01  0.131E-01
   5.729  0.133E-01  0.133E-01
   5.739  0.136E-01  0.136E-01
   5.749  0.138E-01  0.138E-01
   5.759  0.140E-01  0.140E-01
   5.769  0.141E-01  0.141E-01
   5.779  0.141E-01  0.141E-01
   5.789  0.141E-01  0.141E-01
   5.799  0.141E-01  0.141E-01
   5.809  0.139E-01  0.139E-01
   5.819  0.137E-01  0.137E-01
   5.829  0.133E-01  0.133E-01
   5.839  0.129E-01  0.129E-01
   5.849  0.124E-01  0.124E-01
   5.859  0.118E-01  0.118E-01
   5.869  0.112E-01  0.112E-01
   5.879  0.105E-01  0.105E-01
   5.889  0.975E-02  0.975E-02
   5.899  0.897E-02  0.897E-02
   5.909  0.819E-02  0.819E-02
   5.919  0.740E-02  0.740E-02
   5.929  0.663E-02  0.663E-02
   5.939  0.588E-02  0.588E-02
   5.949  0.517E-02  0.517E-02
   5.959  0.450E-02  0.450E-02
   5.969  0.388E-02  0.388E-02
   5.979  0.331E-02  0.331E-02
   5.989  0.280E-02  0.280E-02
   5.999  0.234E-02  0.234E-02
   6.009  0.194E-02  0.194E-02
   6.019  0.160E-02  0.160E-02
   6.029  0.130E-02  0.130E-02
   6.039  0.105E-02  0.105E-02
   6.049  0.836E-03  0.836E-03
   6.059  0.661E-03  0.661E-03
   6.069  0.518E-03  0.518E-03
   6.079  0.403E-03  0.403E-03
   6.089  0.310E-03  0.310E-03
   6.099  0.237E-03  0.237E-03
   6.109  0.181E-03  0.181E-03
   6.119  0.138E-03  0.138E-03
   6.129  0.106E-03  0.106E-03
   6.139  0.830E-04  0.830E-04
   6.149  0.687E-04  0.687E-04
   6.159  0.620E-04  0.620E-04
   6.169  0.630E-04  0.630E-04
   6.179  0.724E-04  0.724E-04
   6.189  0.916E-04  0.916E-04
   6.199  0.123E-03  0.123E-03
   6.209  0.171E-03  0.171E-03
   6.219  0.240E-03  0.240E-03
   6.229  0.336E-03  0.336E-03
   6.239  0.469E-03  0.469E-03
   6.249  0.649E-03  0.649E-03
   6.259  0.891E-03  0.891E-03
   6.269  0.121E-02  0.121E-02
   6.279  0.163E-02  0.163E-02
   6.289  0.217E-02  0.217E-02
   6.299  0.286E-02  0.286E-02
   6.309  0.373E-02  0.373E-02
   6.319  0.482E-02  0.482E-02
   6.329  0.617E-02  0.617E-02
   6.339  0.781E-02  0.781E-02
   6.349  0.979E-02  0.979E-02
   6.359  0.122E-01  0.122E-01
   6.369  0.149E-01  0.149E-01
   6.379  0.182E-01  0.182E-01
   6.389  0.219E-01  0.219E-01
   6.399  0.262E-01  0.262E-01
   6.409  0.310E-01  0.310E-01
   6.419  0.364E-01  0.364E-01
   6.429  0.422E-01  0.422E-01
   6.439  0.486E-01  0.486E-01
   6.449  0.555E-01  0.555E-01
   6.459  0.627E-01  0.627E-01
   6.469  0.703E-01  0.703E-01
   6.479  0.782E-01  0.782E-01
   6.489  0.863E-01  0.863E-01
   6.499  0.944E-01  0.944E-01
   6.509  0.102E+00  0.102E+00
   6.519  0.110E+00  0.110E+00
   6.529  0.118E+00  0.118E+00
   6.539  0.125E+00  0.125E+00
   6.549  0.132E+00  0.132E+00
   6.559  0.139E+00  0.139E+00
   6.569  0.144E+00  0.144E+00
   6.579  0.149E+00  0.149E+00
   6.589  0.154E+00  0.154E+00
   6.599  0.158E+00  0.158E+00
   6.609  0.161E+00  0.161E+00
   6.619  0.163E+00  0.163E+00
   6.629  0.164E+00  0.164E+00
   6.639  0.165E+00  0.165E+00
   6.649  0.166E+00  0.166E+00
   6.659  0.166E+00  0.166E+00
   6.669  0.165E+00  0.165E+00
   6.679  0.164E+00  0.164E+00
   6.689  0.163E+00  0.163E+00
   6.699  0.162E+00  0.162E+00
   6.709  0.160E+00  0.160E+00
   6.719  0.158E+00  0.158E+00
   6.729  0.156E+00  0.156E+00
   6.739  0.154E+00  0.154E+00
   6.749  0.152E+00  0.152E+00
   6.759  0.150E+00  0.150E+00
   6.769  0.149E+00  0.149E+00
   6.779  0.147E+00  0.147E+00
   6.789  0.145E+00  0.145E+00
   6.799  0.143E+00  0.143E+00
   6.809  0.141E+00  0.141E+00
   6.819  0.140E+00  0.140E+00
   6.829  0.138E+00  0.138E+00
   6.839  0.136E+00  0.136E+00
   6.849  0.133E+00  0.133E+00
   6.859  0.131E+00  0.131E+00
   6.869  0.128E+00  0.128E+00
   6.879  0.125E+00  0.125E+00
   6.889  0.122E+00  0.122E+00
   6.899  0.118E+00  0.118E+00
   6.909  0.114E+00  0.114E+00
   6.919  0.110E+00  0.110E+00
   6.929  0.106E+00  0.106E+00
   6.939  0.101E+00  0.101E+00
   6.949  0.968E-01  0.968E-01
   6.959  0.923E-01  0.923E-01
   6.969  0.878E-01  0.878E-01
   6.979  0.836E-01  0.836E-01
   6.989  0.796E-01  0.796E-01
   6.999  0.761E-01  0.761E-01
   7.009  0.730E-01  0.730E-01
   7.019  0.705E-01  0.705E-01
   7.029  0.687E-01  0.687E-01
   7.039  0.675E-01  0.675E-01
   7.049  0.672E-01  0.672E-01
   7.059  0.675E-01  0.675E-01
   7.069  0.686E-01  0.686E-01
   7.079  0.705E-01  0.705E-01
   7.089  0.730E-01  0.730E-01
   7.099  0.761E-01  0.761E-01
   7.109  0.797E-01  0.797E-01
   7.119  0.837E-01  0.837E-01
   7.129  0.880E-01  0.880E-01
   7.139  0.923E-01  0.923E-01
   7.149  0.966E-01  0.966E-01
   7.159  0.101E+00  0.101E+00
   7.169  0.105E+00  0.105E+00
   7.179  0.108E+00  0.108E+00
   7.189  0.111E+00  0.111E+00
   7.199  0.114E+00  0.114E+00
   7.209  0.115E+00  0.115E+00
   7.219  0.117E+00  0.117E+00
   7.229  0.118E+00  0.118E+00
   7.239  0.118E+00  0.118E+00
   7.249  0.118E+00  0.118E+00
   7.259  0.118E+00  0.118E+00
   7.269  0.118E+00  0.118E+00
   7.279  0.118E+00  0.118E+00
   7.289  0.119E+00  0.119E+00
   7.299  0.119E+00  0.119E+00
   7.309  0.121E+00  0.121E+00
   7.319  0.123E+00  0.123E+00
   7.329  0.126E+00  0.126E+00
   7.339  0.129E+00  0.129E+00
   7.349  0.134E+00  0.134E+00
   7.359  0.140E+00  0.140E+00
   7.369  0.146E+00  0.146E+00
   7.379  0.154E+00  0.154E+00
   7.389  0.162E+00  0.162E+00
   7.399  0.171E+00  0.171E+00
   7.409  0.180E+00  0.180E+00
   7.419  0.190E+00  0.190E+00
   7.429  0.201E+00  0.201E+00
   7.439  0.211E+00  0.211E+00
   7.449  0.221E+00  0.221E+00
   7.459  0.230E+00  0.230E+00
   7.469  0.239E+00  0.239E+00
   7.479  0.248E+00  0.248E+00
   7.489  0.255E+00  0.255E+00
   7.499  0.261E+00  0.261E+00
   7.509  0.267E+00  0.267E+00
   7.519  0.271E+00  0.271E+00
   7.529  0.273E+00  0.273E+00
   7.539  0.275E+00  0.275E+00
   7.549  0.275E+00  0.275E+00
   7.559  0.273E+00  0.273E+00
   7.569  0.271E+00  0.271E+00
   7.579  0.267E+00  0.267E+00
   7.589  0.263E+00  0.263E+00
   7.599  0.257E+00  0.257E+00
   7.609  0.251E+00  0.251E+00
   7.619  0.244E+00  0.244E+00
   7.629  0.236E+00  0.236E+00
   7.639  0.228E+00  0.228E+00
   7.649  0.220E+00  0.220E+00
   7.659  0.211E+00  0.211E+00
   7.669  0.203E+00  0.203E+00
   7.679  0.195E+00  0.195E+00
   7.689  0.187E+00  0.187E+00
   7.699  0.179E+00  0.179E+00
   7.709  0.171E+00  0.171E+00
   7.719  0.164E+00  0.164E+00
   7.729  0.158E+00  0.158E+00
   7.739  0.152E+00  0.152E+00
   7.749  0.147E+00  0.147E+00
   7.759  0.142E+00  0.142E+00
   7.769  0.138E+00  0.138E+00
   7.779  0.135E+00  0.135E+00
   7.789  0.132E+00  0.132E+00
   7.799  0.130E+00  0.130E+00
   7.809  0.128E+00  0.128E+00
   7.819  0.127E+00  0.127E+00
   7.829  0.126E+00  0.126E+00
   7.839  0.126E+00  0.126E+00
   7.849  0.126E+00  0.126E+00
   7.859  0.126E+00  0.126E+00
   7.869  0.126E+00  0.126E+00
   7.879  0.126E+00  0.126E+00
   7.889  0.126E+00  0.126E+00
   7.899  0.126E+00  0.126E+00
   7.909  0.126E+00  0.126E+00
   7.919  0.125E+00  0.125E+00
   7.929  0.125E+00  0.125E+00
   7.939  0.125E+00  0.125E+00
   7.949  0.124E+00  0.124E+00
   7.959  0.124E+00  0.124E+00
   7.969  0.124E+00  0.124E+00
   7.979  0.124E+00  0.124E+00
   7.989  0.124E+00  0.124E+00
   7.999  0.125E+00  0.125E+00
   8.009  0.125E+00  0.125E+00
   8.019  0.126E+00  0.126E+00
   8.029  0.126E+00  0.126E+00
   8.039  0.127E+00  0.127E+00
   8.049  0.127E+00  0.127E+00
   8.059  0.128E+00  0.128E+00
   8.069  0.128E+00  0.128E+00
   8.079  0.128E+00  0.128E+00
   8.089  0.127E+00  0.127E+00
   8.099  0.126E+00  0.126E+00
   8.109  0.125E+00  0.125E+00
   8.119  0.124E+00  0.124E+00
   8.129  0.122E+00  0.122E+00
   8.139  0.119E+00  0.119E+00
   8.149  0.117E+00  0.117E+00
   8.159  0.115E+00  0.115E+00
   8.169  0.112E+00  0.112E+00
   8.179  0.110E+00  0.110E+00
   8.189  0.108E+00  0.108E+00
   8.199  0.106E+00  0.106E+00
   8.209  0.104E+00  0.104E+00
   8.219  0.103E+00  0.103E+00
   8.229  0.102E+00  0.102E+00
   8.239  0.101E+00  0.101E+00
   8.249  0.101E+00  0.101E+00
   8.259  0.101E+00  0.101E+00
   8.269  0.100E+00  0.100E+00
   8.279  0.100E+00  0.100E+00
   8.289  0.998E-01  0.998E-01
   8.299  0.992E-01  0.992E-01
   8.309  0.983E-01  0.983E-01
   8.319  0.970E-01  0.970E-01
   8.329  0.954E-01  0.954E-01
   8.339  0.933E-01  0.933E-01
   8.349  0.909E-01  0.909E-01
   8.359  0.882E-01  0.882E-01
   8.369  0.852E-01  0.852E-01
   8.379  0.821E-01  0.821E-01
   8.389  0.789E-01  0.789E-01
   8.399  0.757E-01  0.757E-01
   8.409  0.726E-01  0.726E-01
   8.419  0.698E-01  0.698E-01
   8.429  0.673E-01  0.673E-01
   8.439  0.652E-01  0.652E-01
   8.449  0.636E-01  0.636E-01
   8.459  0.624E-01  0.624E-01
   8.469  0.618E-01  0.618E-01
   8.479  0.617E-01  0.617E-01
   8.489  0.621E-01  0.621E-01
   8.499  0.629E-01  0.629E-01
   8.509  0.641E-01  0.641E-01
   8.519  0.657E-01  0.657E-01
   8.529  0.676E-01  0.676E-01
   8.539  0.696E-01  0.696E-01
   8.549  0.718E-01  0.718E-01
   8.559  0.741E-01  0.741E-01
   8.569  0.764E-01  0.764E-01
   8.579  0.787E-01  0.787E-01
   8.589  0.808E-01  0.808E-01
   8.599  0.828E-01  0.828E-01
   8.609  0.847E-01  0.847E-01
   8.619  0.863E-01  0.863E-01
   8.629  0.877E-01  0.877E-01
   8.639  0.890E-01  0.890E-01
   8.649  0.900E-01  0.900E-01
   8.659  0.909E-01  0.909E-01
   8.669  0.916E-01  0.916E-01
   8.679  0.923E-01  0.923E-01
   8.689  0.929E-01  0.929E-01
   8.699  0.934E-01  0.934E-01
   8.709  0.940E-01  0.940E-01
   8.719  0.947E-01  0.947E-01
   8.729  0.955E-01  0.955E-01
   8.739  0.965E-01  0.965E-01
   8.749  0.976E-01  0.976E-01
   8.759  0.990E-01  0.990E-01
   8.769  0.101E+00  0.101E+00
   8.779  0.103E+00  0.103E+00
   8.789  0.105E+00  0.105E+00
   8.799  0.107E+00  0.107E+00
   8.809  0.110E+00  0.110E+00
   8.819  0.113E+00  0.113E+00
   8.829  0.116E+00  0.116E+00
   8.839  0.119E+00  0.119E+00
   8.849  0.122E+00  0.122E+00
   8.859  0.125E+00  0.125E+00
   8.869  0.129E+00  0.129E+00
   8.879  0.132E+00  0.132E+00
   8.889  0.135E+00  0.135E+00
   8.899  0.138E+00  0.138E+00
   8.909  0.141E+00  0.141E+00
   8.919  0.143E+00  0.143E+00
   8.929  0.146E+00  0.146E+00
   8.939  0.147E+00  0.147E+00
   8.949  0.149E+00  0.149E+00
   8.959  0.150E+00  0.150E+00
   8.969  0.150E+00  0.150E+00
   8.979  0.150E+00  0.150E+00
   8.989  0.150E+00  0.150E+00
   8.999  0.149E+00  0.149E+00
   9.009  0.147E+00  0.147E+00
   9.019  0.146E+00  0.146E+00
   9.029  0.144E+00  0.144E+00
   9.039  0.143E+00  0.143E+00
   9.049  0.141E+00  0.141E+00
   9.059  0.140E+00  0.140E+00
   9.069  0.140E+00  0.140E+00
   9.079  0.140E+00  0.140E+00
   9.089  0.141E+00  0.141E+00
   9.099  0.142E+00  0.142E+00
   9.109  0.145E+00  0.145E+00
   9.119  0.149E+00  0.149E+00
   9.129  0.154E+00  0.154E+00
   9.139  0.160E+00  0.160E+00
   9.149  0.167E+00  0.167E+00
   9.159  0.174E+00  0.174E+00
   9.169  0.182E+00  0.182E+00
   9.179  0.190E+00  0.190E+00
   9.189  0.198E+00  0.198E+00
   9.199  0.206E+00  0.206E+00
   9.209  0.213E+00  0.213E+00
   9.219  0.219E+00  0.219E+00
   9.229  0.225E+00  0.225E+00
   9.239  0.229E+00  0.229E+00
   9.249  0.232E+00  0.232E+00
   9.259  0.234E+00  0.234E+00
   9.269  0.234E+00  0.234E+00
   9.279  0.234E+00  0.234E+00
   9.289  0.233E+00  0.233E+00
   9.299  0.231E+00  0.231E+00
   9.309  0.229E+00  0.229E+00
   9.319  0.228E+00  0.228E+00
   9.329  0.226E+00  0.226E+00
   9.339  0.225E+00  0.225E+00
   9.349  0.225E+00  0.225E+00
   9.359  0.226E+00  0.226E+00
   9.369  0.229E+00  0.229E+00
   9.379  0.232E+00  0.232E+00
   9.389  0.236E+00  0.236E+00
   9.399  0.242E+00  0.242E+00
   9.409  0.248E+00  0.248E+00
   9.419  0.254E+00  0.254E+00
   9.429  0.261E+00  0.261E+00
   9.439  0.267E+00  0.267E+00
   9.449  0.273E+00  0.273E+00
   9.459  0.278E+00  0.278E+00
   9.469  0.282E+00  0.282E+00
   9.479  0.285E+00  0.285E+00
   9.489  0.286E+00  0.286E+00
   9.499  0.285E+00  0.285E+00
   9.509  0.282E+00  0.282E+00
   9.519  0.277E+00  0.277E+00
   9.529  0.271E+00  0.271E+00
   9.539  0.262E+00  0.262E+00
   9.549  0.252E+00  0.252E+00
   9.559  0.241E+00  0.241E+00
   9.569  0.228E+00  0.228E+00
   9.579  0.214E+00  0.214E+00
   9.589  0.199E+00  0.199E+00
   9.599  0.184E+00  0.184E+00
   9.609  0.169E+00  0.169E+00
   9.619  0.154E+00  0.154E+00
   9.629  0.139E+00  0.139E+00
   9.639  0.125E+00  0.125E+00
   9.649  0.112E+00  0.112E+00
   9.659  0.991E-01  0.991E-01
   9.669  0.874E-01  0.874E-01
   9.679  0.767E-01  0.767E-01
   9.689  0.672E-01  0.672E-01
   9.699  0.587E-01  0.587E-01
   9.709  0.514E-01  0.514E-01
   9.719  0.452E-01  0.452E-01
   9.729  0.400E-01  0.400E-01
   9.739  0.359E-01  0.359E-01
   9.749  0.327E-01  0.327E-01
   9.759  0.305E-01  0.305E-01
   9.769  0.292E-01  0.292E-01
   9.779  0.287E-01  0.287E-01
   9.789  0.289E-01  0.289E-01
   9.799  0.300E-01  0.300E-01
   9.809  0.318E-01  0.318E-01
   9.819  0.343E-01  0.343E-01
   9.829  0.375E-01  0.375E-01
   9.839  0.415E-01  0.415E-01
   9.849  0.460E-01  0.460E-01
   9.859  0.512E-01  0.512E-01
   9.869  0.570E-01  0.570E-01
   9.879  0.634E-01  0.634E-01
   9.889  0.703E-01  0.703E-01
   9.899  0.777E-01  0.777E-01
   9.909  0.854E-01  0.854E-01
   9.919  0.935E-01  0.935E-01
   9.929  0.102E+00  0.102E+00
   9.939  0.110E+00  0.110E+00
   9.949  0.118E+00  0.118E+00
   9.959  0.126E+00  0.126E+00
   9.969  0.134E+00  0.134E+00
   9.979  0.142E+00  0.142E+00
   9.989  0.148E+00  0.148E+00
   9.999  0.155E+00  0.155E+00
  10.009  0.160E+00  0.160E+00
  10.019  0.164E+00  0.164E+00
  10.029  0.168E+00  0.168E+00
  10.039  0.170E+00  0.170E+00
  10.049  0.171E+00  0.171E+00
  10.059  0.171E+00  0.171E+00
  10.069  0.170E+00  0.170E+00
  10.079  0.168E+00  0.168E+00
  10.089  0.164E+00  0.164E+00
  10.099  0.160E+00  0.160E+00
  10.109  0.155E+00  0.155E+00
  10.119  0.149E+00  0.149E+00
  10.129  0.143E+00  0.143E+00
  10.139  0.136E+00  0.136E+00
  10.149  0.129E+00  0.129E+00
  10.159  0.122E+00  0.122E+00
  10.169  0.116E+00  0.116E+00
  10.179  0.110E+00  0.110E+00
  10.189  0.104E+00  0.104E+00
  10.199  0.999E-01  0.999E-01
  10.209  0.966E-01  0.966E-01
  10.219  0.943E-01  0.943E-01
  10.229  0.931E-01  0.931E-01
  10.239  0.931E-01  0.931E-01
  10.249  0.942E-01  0.942E-01
  10.259  0.963E-01  0.963E-01
  10.269  0.993E-01  0.993E-01
  10.279  0.103E+00  0.103E+00
  10.289  0.107E+00  0.107E+00
  10.299  0.112E+00  0.112E+00
  10.309  0.116E+00  0.116E+00
  10.319  0.121E+00  0.121E+00
  10.329  0.125E+00  0.125E+00
  10.339  0.129E+00  0.129E+00
  10.349  0.131E+00  0.131E+00
  10.359  0.133E+00  0.133E+00
  10.369  0.134E+00  0.134E+00
  10.379  0.134E+00  0.134E+00
  10.389  0.132E+00  0.132E+00
  10.399  0.130E+00  0.130E+00
  10.409  0.126E+00  0.126E+00
  10.419  0.122E+00  0.122E+00
  10.429  0.117E+00  0.117E+00
  10.439  0.111E+00  0.111E+00
  10.449  0.104E+00  0.104E+00
  10.459  0.978E-01  0.978E-01
  10.469  0.910E-01  0.910E-01
  10.479  0.844E-01  0.844E-01
  10.489  0.779E-01  0.779E-01
  10.499  0.719E-01  0.719E-01
  10.509  0.664E-01  0.664E-01
  10.519  0.614E-01  0.614E-01
  10.529  0.572E-01  0.572E-01
  10.539  0.538E-01  0.538E-01
  10.549  0.510E-01  0.510E-01
  10.559  0.490E-01  0.490E-01
  10.569  0.477E-01  0.477E-01
  10.579  0.471E-01  0.471E-01
  10.589  0.471E-01  0.471E-01
  10.599  0.476E-01  0.476E-01
  10.609  0.485E-01  0.485E-01
  10.619  0.498E-01  0.498E-01
  10.629  0.514E-01  0.514E-01
  10.639  0.532E-01  0.532E-01
  10.649  0.552E-01  0.552E-01
  10.659  0.572E-01  0.572E-01
  10.669  0.593E-01  0.593E-01
  10.679  0.614E-01  0.614E-01
  10.689  0.634E-01  0.634E-01
  10.699  0.654E-01  0.654E-01
  10.709  0.673E-01  0.673E-01
  10.719  0.691E-01  0.691E-01
  10.729  0.708E-01  0.708E-01
  10.739  0.723E-01  0.723E-01
  10.749  0.737E-01  0.737E-01
  10.759  0.749E-01  0.749E-01
  10.769  0.759E-01  0.759E-01
  10.779  0.766E-01  0.766E-01
  10.789  0.771E-01  0.771E-01
  10.799  0.774E-01  0.774E-01
  10.809  0.773E-01  0.773E-01
  10.819  0.769E-01  0.769E-01
  10.829  0.763E-01  0.763E-01
  10.839  0.752E-01  0.752E-01
  10.849  0.739E-01  0.739E-01
  10.859  0.723E-01  0.723E-01
  10.869  0.705E-01  0.705E-01
  10.879  0.684E-01  0.684E-01
  10.889  0.660E-01  0.660E-01
  10.899  0.636E-01  0.636E-01
  10.909  0.609E-01  0.609E-01
  10.919  0.582E-01  0.582E-01
  10.929  0.554E-01  0.554E-01
  10.939  0.526E-01  0.526E-01
  10.949  0.498E-01  0.498E-01
  10.959  0.470E-01  0.470E-01
  10.969  0.442E-01  0.442E-01
  10.979  0.415E-01  0.415E-01
  10.989  0.388E-01  0.388E-01
  10.999  0.362E-01  0.362E-01
  11.009  0.337E-01  0.337E-01
  11.019  0.313E-01  0.313E-01
  11.029  0.290E-01  0.290E-01
  11.039  0.268E-01  0.268E-01
  11.049  0.249E-01  0.249E-01
  11.059  0.231E-01  0.231E-01
  11.069  0.215E-01  0.215E-01
  11.079  0.201E-01  0.201E-01
  11.089  0.191E-01  0.191E-01
  11.099  0.183E-01  0.183E-01
  11.109  0.179E-01  0.179E-01
  11.119  0.179E-01  0.179E-01
  11.129  0.182E-01  0.182E-01
  11.139  0.190E-01  0.190E-01
  11.149  0.202E-01  0.202E-01
  11.159  0.219E-01  0.219E-01
  11.169  0.240E-01  0.240E-01
  11.179  0.267E-01  0.267E-01
  11.189  0.297E-01  0.297E-01
  11.199  0.333E-01  0.333E-01
  11.209  0.372E-01  0.372E-01
  11.219  0.416E-01  0.416E-01
  11.229  0.463E-01  0.463E-01
  11.239  0.513E-01  0.513E-01
  11.249  0.564E-01  0.564E-01
  11.259  0.617E-01  0.617E-01
  11.269  0.671E-01  0.671E-01
  11.279  0.724E-01  0.724E-01
  11.289  0.775E-01  0.775E-01
  11.299  0.823E-01  0.823E-01
  11.309  0.867E-01  0.867E-01
  11.319  0.907E-01  0.907E-01
  11.329  0.941E-01  0.941E-01
  11.339  0.969E-01  0.969E-01
  11.349  0.989E-01  0.989E-01
  11.359  0.100E+00  0.100E+00
  11.369  0.101E+00  0.101E+00
  11.379  0.101E+00  0.101E+00
  11.389  0.999E-01  0.999E-01
  11.399  0.984E-01  0.984E-01
  11.409  0.965E-01  0.965E-01
  11.419  0.941E-01  0.941E-01
  11.429  0.914E-01  0.914E-01
  11.439  0.885E-01  0.885E-01
  11.449  0.856E-01  0.856E-01
  11.459  0.827E-01  0.827E-01
  11.469  0.801E-01  0.801E-01
  11.479  0.778E-01  0.778E-01
  11.489  0.758E-01  0.758E-01
  11.499  0.744E-01  0.744E-01
  11.509  0.733E-01  0.733E-01
  11.519  0.728E-01  0.728E-01
  11.529  0.727E-01  0.727E-01
  11.539  0.731E-01  0.731E-01
  11.549  0.738E-01  0.738E-01
  11.559  0.748E-01  0.748E-01
  11.569  0.760E-01  0.760E-01
  11.579  0.773E-01  0.773E-01
  11.589  0.787E-01  0.787E-01
  11.599  0.800E-01  0.800E-01
  11.609  0.812E-01  0.812E-01
  11.619  0.822E-01  0.822E-01
  11.629  0.830E-01  0.830E-01
  11.639  0.836E-01  0.836E-01
  11.649  0.841E-01  0.841E-01
  11.659  0.843E-01  0.843E-01
  11.669  0.843E-01  0.843E-01
  11.679  0.843E-01  0.843E-01
  11.689  0.841E-01  0.841E-01
  11.699  0.840E-01  0.840E-01
  11.709  0.838E-01  0.838E-01
  11.719  0.838E-01  0.838E-01
  11.729  0.838E-01  0.838E-01
  11.739  0.840E-01  0.840E-01
  11.749  0.843E-01  0.843E-01
  11.759  0.847E-01  0.847E-01
  11.769  0.852E-01  0.852E-01
  11.779  0.857E-01  0.857E-01
  11.789  0.862E-01  0.862E-01
  11.799  0.866E-01  0.866E-01
  11.809  0.869E-01  0.869E-01
  11.819  0.870E-01  0.870E-01
  11.829  0.868E-01  0.868E-01
  11.839  0.864E-01  0.864E-01
  11.849  0.855E-01  0.855E-01
  11.859  0.843E-01  0.843E-01
  11.869  0.827E-01  0.827E-01
  11.879  0.807E-01  0.807E-01
  11.889  0.783E-01  0.783E-01
  11.899  0.756E-01  0.756E-01
  11.909  0.727E-01  0.727E-01
  11.919  0.695E-01  0.695E-01
  11.929  0.662E-01  0.662E-01
  11.939  0.629E-01  0.629E-01
  11.949  0.596E-01  0.596E-01
  11.959  0.563E-01  0.563E-01
  11.969  0.533E-01  0.533E-01
  11.979  0.504E-01  0.504E-01
  11.989  0.478E-01  0.478E-01
  11.999  0.456E-01  0.456E-01
  12.009  0.437E-01  0.437E-01
  12.019  0.421E-01  0.421E-01
  12.029  0.410E-01  0.410E-01
  12.039  0.402E-01  0.402E-01
  12.049  0.399E-01  0.399E-01
  12.059  0.399E-01  0.399E-01
  12.069  0.403E-01  0.403E-01
  12.079  0.410E-01  0.410E-01
  12.089  0.420E-01  0.420E-01
  12.099  0.434E-01  0.434E-01
  12.109  0.449E-01  0.449E-01
  12.119  0.467E-01  0.467E-01
  12.129  0.486E-01  0.486E-01
  12.139  0.507E-01  0.507E-01
  12.149  0.527E-01  0.527E-01
  12.159  0.548E-01  0.548E-01
  12.169  0.569E-01  0.569E-01
  12.179  0.588E-01  0.588E-01
  12.189  0.607E-01  0.607E-01
  12.199  0.623E-01  0.623E-01
  12.209  0.637E-01  0.637E-01
  12.219  0.650E-01  0.650E-01
  12.229  0.660E-01  0.660E-01
  12.239  0.667E-01  0.667E-01
  12.249  0.672E-01  0.672E-01
  12.259  0.675E-01  0.675E-01
  12.269  0.675E-01  0.675E-01
  12.279  0.673E-01  0.673E-01
  12.289  0.669E-01  0.669E-01
  12.299  0.662E-01  0.662E-01
  12.309  0.654E-01  0.654E-01
  12.319  0.644E-01  0.644E-01
  12.329  0.633E-01  0.633E-01
  12.339  0.620E-01  0.620E-01
  12.349  0.605E-01  0.605E-01
  12.359  0.589E-01  0.589E-01
  12.369  0.573E-01  0.573E-01
  12.379  0.555E-01  0.555E-01
  12.389  0.537E-01  0.537E-01
  12.399  0.520E-01  0.520E-01
  12.409  0.502E-01  0.502E-01
  12.419  0.485E-01  0.485E-01
  12.429  0.469E-01  0.469E-01
  12.439  0.455E-01  0.455E-01
  12.449  0.442E-01  0.442E-01
  12.459  0.432E-01  0.432E-01
  12.469  0.423E-01  0.423E-01
  12.479  0.417E-01  0.417E-01
  12.489  0.414E-01  0.414E-01
  12.499  0.413E-01  0.413E-01
  12.509  0.414E-01  0.414E-01
  12.519  0.417E-01  0.417E-01
  12.529  0.423E-01  0.423E-01
  12.539  0.430E-01  0.430E-01
  12.549  0.437E-01  0.437E-01
  12.559  0.446E-01  0.446E-01
  12.569  0.455E-01  0.455E-01
  12.579  0.464E-01  0.464E-01
  12.589  0.473E-01  0.473E-01
  12.599  0.480E-01  0.480E-01
  12.609  0.487E-01  0.487E-01
  12.619  0.492E-01  0.492E-01
  12.629  0.496E-01  0.496E-01
  12.639  0.499E-01  0.499E-01
  12.649  0.499E-01  0.499E-01
  12.659  0.498E-01  0.498E-01
  12.669  0.496E-01  0.496E-01
  12.679  0.491E-01  0.491E-01
  12.689  0.486E-01  0.486E-01
  12.699  0.479E-01  0.479E-01
  12.709  0.471E-01  0.471E-01
  12.719  0.461E-01  0.461E-01
  12.729  0.451E-01  0.451E-01
  12.739  0.440E-01  0.440E-01
  12.749  0.429E-01  0.429E-01
  12.759  0.418E-01  0.418E-01
  12.769  0.406E-01  0.406E-01
  12.779  0.395E-01  0.395E-01
  12.789  0.385E-01  0.385E-01
  12.799  0.376E-01  0.376E-01
  12.809  0.369E-01  0.369E-01
  12.819  0.364E-01  0.364E-01
  12.829  0.362E-01  0.362E-01
  12.839  0.362E-01  0.362E-01
  12.849  0.365E-01  0.365E-01
  12.859  0.371E-01  0.371E-01
  12.869  0.381E-01  0.381E-01
  12.879  0.394E-01  0.394E-01
  12.889  0.411E-01  0.411E-01
  12.899  0.430E-01  0.430E-01
  12.909  0.452E-01  0.452E-01
  12.919  0.476E-01  0.476E-01
  12.929  0.502E-01  0.502E-01
  12.939  0.529E-01  0.529E-01
  12.949  0.556E-01  0.556E-01
  12.959  0.583E-01  0.583E-01
  12.969  0.609E-01  0.609E-01
  12.979  0.634E-01  0.634E-01
  12.989  0.658E-01  0.658E-01
  12.999  0.679E-01  0.679E-01
  13.009  0.697E-01  0.697E-01
  13.019  0.712E-01  0.712E-01
  13.029  0.725E-01  0.725E-01
  13.039  0.735E-01  0.735E-01
  13.049  0.742E-01  0.742E-01
  13.059  0.746E-01  0.746E-01
  13.069  0.748E-01  0.748E-01
  13.079  0.748E-01  0.748E-01
  13.089  0.747E-01  0.747E-01
  13.099  0.743E-01  0.743E-01
  13.109  0.739E-01  0.739E-01
  13.119  0.734E-01  0.734E-01
  13.129  0.729E-01  0.729E-01
  13.139  0.723E-01  0.723E-01
  13.149  0.718E-01  0.718E-01
  13.159  0.712E-01  0.712E-01
  13.169  0.706E-01  0.706E-01
  13.179  0.700E-01  0.700E-01
  13.189  0.693E-01  0.693E-01
  13.199  0.685E-01  0.685E-01
  13.209  0.677E-01  0.677E-01
  13.219  0.667E-01  0.667E-01
  13.229  0.656E-01  0.656E-01
  13.239  0.643E-01  0.643E-01
  13.249  0.628E-01  0.628E-01
  13.259  0.611E-01  0.611E-01
  13.269  0.591E-01  0.591E-01
  13.279  0.570E-01  0.570E-01
  13.289  0.548E-01  0.548E-01
  13.299  0.524E-01  0.524E-01
  13.309  0.499E-01  0.499E-01
  13.319  0.475E-01  0.475E-01
  13.329  0.450E-01  0.450E-01
  13.339  0.427E-01  0.427E-01
  13.349  0.405E-01  0.405E-01
  13.359  0.386E-01  0.386E-01
  13.369  0.370E-01  0.370E-01
  13.379  0.357E-01  0.357E-01
  13.389  0.348E-01  0.348E-01
  13.399  0.344E-01  0.344E-01
  13.409  0.344E-01  0.344E-01
  13.419  0.349E-01  0.349E-01
  13.429  0.358E-01  0.358E-01
  13.439  0.371E-01  0.371E-01
  13.449  0.388E-01  0.388E-01
  13.459  0.408E-01  0.408E-01
  13.469  0.430E-01  0.430E-01
  13.479  0.454E-01  0.454E-01
  13.489  0.479E-01  0.479E-01
  13.499  0.505E-01  0.505E-01
  13.509  0.530E-01  0.530E-01
  13.519  0.553E-01  0.553E-01
  13.529  0.575E-01  0.575E-01
  13.539  0.594E-01  0.594E-01
  13.549  0.611E-01  0.611E-01
  13.559  0.624E-01  0.624E-01
  13.569  0.634E-01  0.634E-01
  13.579  0.640E-01  0.640E-01
  13.589  0.643E-01  0.643E-01
  13.599  0.643E-01  0.643E-01
  13.609  0.640E-01  0.640E-01
  13.619  0.633E-01  0.633E-01
  13.629  0.625E-01  0.625E-01
  13.639  0.615E-01  0.615E-01
  13.649  0.603E-01  0.603E-01
  13.659  0.589E-01  0.589E-01
  13.669  0.575E-01  0.575E-01
  13.679  0.560E-01  0.560E-01
  13.689  0.544E-01  0.544E-01
  13.699  0.528E-01  0.528E-01
  13.709  0.511E-01  0.511E-01
  13.719  0.494E-01  0.494E-01
  13.729  0.478E-01  0.478E-01
  13.739  0.461E-01  0.461E-01
  13.749  0.444E-01  0.444E-01
  13.759  0.427E-01  0.427E-01
  13.769  0.410E-01  0.410E-01
  13.779  0.394E-01  0.394E-01
  13.789  0.378E-01  0.378E-01
  13.799  0.363E-01  0.363E-01
  13.809  0.349E-01  0.349E-01
  13.819  0.336E-01  0.336E-01
  13.829  0.325E-01  0.325E-01
  13.839  0.315E-01  0.315E-01
  13.849  0.307E-01  0.307E-01
  13.859  0.300E-01  0.300E-01
  13.869  0.296E-01  0.296E-01
  13.879  0.294E-01  0.294E-01
  13.889  0.293E-01  0.293E-01
  13.899  0.294E-01  0.294E-01
  13.909  0.297E-01  0.297E-01
  13.919  0.302E-01  0.302E-01
  13.929  0.307E-01  0.307E-01
  13.939  0.313E-01  0.313E-01
  13.949  0.320E-01  0.320E-01
  13.959  0.327E-01  0.327E-01
  13.969  0.334E-01  0.334E-01
  13.979  0.341E-01  0.341E-01
  13.989  0.347E-01  0.347E-01
  13.999  0.352E-01  0.352E-01
  14.009  0.357E-01  0.357E-01
  14.019  0.361E-01  0.361E-01
  14.029  0.363E-01  0.363E-01
  14.039  0.365E-01  0.365E-01
  14.049  0.366E-01  0.366E-01
  14.059  0.365E-01  0.365E-01
  14.069  0.364E-01  0.364E-01
  14.079  0.362E-01  0.362E-01
  14.089  0.358E-01  0.358E-01
  14.099  0.354E-01  0.354E-01
  14.109  0.349E-01  0.349E-01
  14.119  0.342E-01  0.342E-01
  14.129  0.335E-01  0.335E-01
  14.139  0.327E-01  0.327E-01
  14.149  0.317E-01  0.317E-01
  14.159  0.307E-01  0.307E-01
  14.169  0.296E-01  0.296E-01
  14.179  0.284E-01  0.284E-01
  14.189  0.272E-01  0.272E-01
  14.199  0.260E-01  0.260E-01
  14.209  0.247E-01  0.247E-01
  14.219  0.236E-01  0.236E-01
  14.229  0.225E-01  0.225E-01
  14.239  0.216E-01  0.216E-01
  14.249  0.208E-01  0.208E-01
  14.259  0.202E-01  0.202E-01
  14.269  0.199E-01  0.199E-01
  14.279  0.198E-01  0.198E-01
  14.289  0.200E-01  0.200E-01
  14.299  0.204E-01  0.204E-01
  14.309  0.212E-01  0.212E-01
  14.319  0.222E-01  0.222E-01
  14.329  0.235E-01  0.235E-01
  14.339  0.251E-01  0.251E-01
  14.349  0.268E-01  0.268E-01
  14.359  0.286E-01  0.286E-01
  14.369  0.306E-01  0.306E-01
  14.379  0.325E-01  0.325E-01
  14.389  0.345E-01  0.345E-01
  14.399  0.364E-01  0.364E-01
  14.409  0.382E-01  0.382E-01
  14.419  0.398E-01  0.398E-01
  14.429  0.412E-01  0.412E-01
  14.439  0.423E-01  0.423E-01
  14.449  0.431E-01  0.431E-01
  14.459  0.437E-01  0.437E-01
  14.469  0.439E-01  0.439E-01
  14.479  0.438E-01  0.438E-01
  14.489  0.434E-01  0.434E-01
  14.499  0.428E-01  0.428E-01
  14.509  0.419E-01  0.419E-01
  14.519  0.407E-01  0.407E-01
  14.529  0.394E-01  0.394E-01
  14.539  0.379E-01  0.379E-01
  14.549  0.363E-01  0.363E-01
  14.559  0.345E-01  0.345E-01
  14.569  0.327E-01  0.327E-01
  14.579  0.308E-01  0.308E-01
  14.589  0.290E-01  0.290E-01
  14.599  0.271E-01  0.271E-01
  14.609  0.253E-01  0.253E-01
  14.619  0.235E-01  0.235E-01
  14.629  0.218E-01  0.218E-01
  14.639  0.203E-01  0.203E-01
  14.649  0.188E-01  0.188E-01
  14.659  0.174E-01  0.174E-01
  14.669  0.161E-01  0.161E-01
  14.679  0.150E-01  0.150E-01
  14.689  0.140E-01  0.140E-01
  14.699  0.131E-01  0.131E-01
  14.709  0.124E-01  0.124E-01
  14.719  0.118E-01  0.118E-01
  14.729  0.113E-01  0.113E-01
  14.739  0.109E-01  0.109E-01
  14.749  0.106E-01  0.106E-01
  14.759  0.105E-01  0.105E-01
  14.769  0.104E-01  0.104E-01
  14.779  0.105E-01  0.105E-01
  14.789  0.107E-01  0.107E-01
  14.799  0.110E-01  0.110E-01
  14.809  0.114E-01  0.114E-01
  14.819  0.118E-01  0.118E-01
  14.829  0.124E-01  0.124E-01
  14.839  0.131E-01  0.131E-01
  14.849  0.139E-01  0.139E-01
  14.859  0.147E-01  0.147E-01
  14.869  0.156E-01  0.156E-01
  14.879  0.165E-01  0.165E-01
  14.889  0.174E-01  0.174E-01
  14.899  0.183E-01  0.183E-01
  14.909  0.192E-01  0.192E-01
  14.919  0.200E-01  0.200E-01
  14.929  0.207E-01  0.207E-01
  14.939  0.213E-01  0.213E-01
  14.949  0.218E-01  0.218E-01
  14.959  0.221E-01  0.221E-01
  14.969  0.223E-01  0.223E-01
  14.979  0.223E-01  0.223E-01
  14.989  0.221E-01  0.221E-01
  14.999  0.218E-01  0.218E-01
  15.009  0.213E-01  0.213E-01
  15.019  0.207E-01  0.207E-01
  15.029  0.201E-01  0.201E-01
  15.039  0.193E-01  0.193E-01
  15.049  0.185E-01  0.185E-01
  15.059  0.177E-01  0.177E-01
  15.069  0.169E-01  0.169E-01
  15.079  0.162E-01  0.162E-01
  15.089  0.155E-01  0.155E-01
  15.099  0.149E-01  0.149E-01
  15.109  0.144E-01  0.144E-01
  15.119  0.140E-01  0.140E-01
  15.129  0.137E-01  0.137E-01
  15.139  0.136E-01  0.136E-01
  15.149  0.135E-01  0.135E-01
  15.159  0.135E-01  0.135E-01
  15.169  0.137E-01  0.137E-01
  15.179  0.139E-01  0.139E-01
  15.189  0.142E-01  0.142E-01
  15.199  0.146E-01  0.146E-01
  15.209  0.151E-01  0.151E-01
  15.219  0.156E-01  0.156E-01
  15.229  0.162E-01  0.162E-01
  15.239  0.168E-01  0.168E-01
  15.249  0.176E-01  0.176E-01
  15.259  0.183E-01  0.183E-01
  15.269  0.192E-01  0.192E-01
  15.279  0.201E-01  0.201E-01
  15.289  0.210E-01  0.210E-01
  15.299  0.220E-01  0.220E-01
  15.309  0.231E-01  0.231E-01
  15.319  0.241E-01  0.241E-01
  15.329  0.251E-01  0.251E-01
  15.339  0.261E-01  0.261E-01
  15.349  0.270E-01  0.270E-01
  15.359  0.278E-01  0.278E-01
  15.369  0.285E-01  0.285E-01
  15.379  0.291E-01  0.291E-01
  15.389  0.295E-01  0.295E-01
  15.399  0.298E-01  0.298E-01
  15.409  0.299E-01  0.299E-01
  15.419  0.299E-01  0.299E-01
  15.429  0.298E-01  0.298E-01
  15.439  0.295E-01  0.295E-01
  15.449  0.290E-01  0.290E-01
  15.459  0.286E-01  0.286E-01
  15.469  0.280E-01  0.280E-01
  15.479  0.275E-01  0.275E-01
  15.489  0.269E-01  0.269E-01
  15.499  0.264E-01  0.264E-01
  15.509  0.259E-01  0.259E-01
  15.519  0.255E-01  0.255E-01
  15.529  0.252E-01  0.252E-01
  15.539  0.250E-01  0.250E-01
  15.549  0.249E-01  0.249E-01
  15.559  0.248E-01  0.248E-01
  15.569  0.249E-01  0.249E-01
  15.579  0.250E-01  0.250E-01
  15.589  0.251E-01  0.251E-01
  15.599  0.253E-01  0.253E-01
  15.609  0.254E-01  0.254E-01
  15.619  0.256E-01  0.256E-01
  15.629  0.258E-01  0.258E-01
  15.639  0.259E-01  0.259E-01
  15.649  0.260E-01  0.260E-01
  15.659  0.260E-01  0.260E-01
  15.669  0.260E-01  0.260E-01
  15.679  0.260E-01  0.260E-01
  15.689  0.258E-01  0.258E-01
  15.699  0.256E-01  0.256E-01
  15.709  0.253E-01  0.253E-01
  15.719  0.250E-01  0.250E-01
  15.729  0.245E-01  0.245E-01
  15.739  0.240E-01  0.240E-01
  15.749  0.234E-01  0.234E-01
  15.759  0.226E-01  0.226E-01
  15.769  0.218E-01  0.218E-01
  15.779  0.209E-01  0.209E-01
  15.789  0.200E-01  0.200E-01
  15.799  0.189E-01  0.189E-01
  15.809  0.178E-01  0.178E-01
  15.819  0.167E-01  0.167E-01
  15.829  0.155E-01  0.155E-01
  15.839  0.143E-01  0.143E-01
  15.849  0.131E-01  0.131E-01
  15.859  0.119E-01  0.119E-01
  15.869  0.107E-01  0.107E-01
  15.879  0.962E-02  0.962E-02
  15.889  0.858E-02  0.858E-02
  15.899  0.760E-02  0.760E-02
  15.909  0.671E-02  0.671E-02
  15.919  0.591E-02  0.591E-02
  15.929  0.521E-02  0.521E-02
  15.939  0.460E-02  0.460E-02
  15.949  0.409E-02  0.409E-02
  15.959  0.368E-02  0.368E-02
  15.969  0.337E-02  0.337E-02
  15.979  0.316E-02  0.316E-02
  15.989  0.304E-02  0.304E-02
  15.999  0.302E-02  0.302E-02
  16.009  0.309E-02  0.309E-02
  16.019  0.326E-02  0.326E-02
  16.029  0.352E-02  0.352E-02
  16.039  0.386E-02  0.386E-02
  16.049  0.429E-02  0.429E-02
  16.059  0.480E-02  0.480E-02
  16.069  0.539E-02  0.539E-02
  16.079  0.605E-02  0.605E-02
  16.089  0.677E-02  0.677E-02
  16.099  0.754E-02  0.754E-02
  16.109  0.836E-02  0.836E-02
  16.119  0.921E-02  0.921E-02
  16.129  0.101E-01  0.101E-01
  16.139  0.110E-01  0.110E-01
  16.149  0.119E-01  0.119E-01
  16.159  0.128E-01  0.128E-01
  16.169  0.136E-01  0.136E-01
  16.179  0.145E-01  0.145E-01
  16.189  0.153E-01  0.153E-01
  16.199  0.162E-01  0.162E-01
  16.209  0.170E-01  0.170E-01
  16.219  0.177E-01  0.177E-01
  16.229  0.185E-01  0.185E-01
  16.239  0.192E-01  0.192E-01
  16.249  0.199E-01  0.199E-01
  16.259  0.206E-01  0.206E-01
  16.269  0.212E-01  0.212E-01
  16.279  0.218E-01  0.218E-01
  16.289  0.224E-01  0.224E-01
  16.299  0.229E-01  0.229E-01
  16.309  0.233E-01  0.233E-01
  16.319  0.236E-01  0.236E-01
  16.329  0.239E-01  0.239E-01
  16.339  0.240E-01  0.240E-01
  16.349  0.239E-01  0.239E-01
  16.359  0.238E-01  0.238E-01
  16.369  0.235E-01  0.235E-01
  16.379  0.230E-01  0.230E-01
  16.389  0.225E-01  0.225E-01
  16.399  0.218E-01  0.218E-01
  16.409  0.210E-01  0.210E-01
  16.419  0.201E-01  0.201E-01
  16.429  0.192E-01  0.192E-01
  16.439  0.182E-01  0.182E-01
  16.449  0.173E-01  0.173E-01
  16.459  0.164E-01  0.164E-01
  16.469  0.156E-01  0.156E-01
  16.479  0.148E-01  0.148E-01
  16.489  0.142E-01  0.142E-01
  16.499  0.137E-01  0.137E-01
  16.509  0.134E-01  0.134E-01
  16.519  0.132E-01  0.132E-01
  16.529  0.132E-01  0.132E-01
  16.539  0.133E-01  0.133E-01
  16.549  0.136E-01  0.136E-01
  16.559  0.140E-01  0.140E-01
  16.569  0.145E-01  0.145E-01
  16.579  0.151E-01  0.151E-01
  16.589  0.158E-01  0.158E-01
  16.599  0.166E-01  0.166E-01
  16.609  0.174E-01  0.174E-01
  16.619  0.181E-01  0.181E-01
  16.629  0.189E-01  0.189E-01
  16.639  0.196E-01  0.196E-01
  16.649  0.202E-01  0.202E-01
  16.659  0.208E-01  0.208E-01
  16.669  0.212E-01  0.212E-01
  16.679  0.216E-01  0.216E-01
  16.689  0.218E-01  0.218E-01
  16.699  0.220E-01  0.220E-01
  16.709  0.220E-01  0.220E-01
  16.719  0.219E-01  0.219E-01
  16.729  0.218E-01  0.218E-01
  16.739  0.215E-01  0.215E-01
  16.749  0.211E-01  0.211E-01
  16.759  0.207E-01  0.207E-01
  16.769  0.202E-01  0.202E-01
  16.779  0.196E-01  0.196E-01
  16.789  0.190E-01  0.190E-01
  16.799  0.183E-01  0.183E-01
  16.809  0.175E-01  0.175E-01
  16.819  0.168E-01  0.168E-01
  16.829  0.160E-01  0.160E-01
  16.839  0.151E-01  0.151E-01
  16.849  0.143E-01  0.143E-01
  16.859  0.135E-01  0.135E-01
  16.869  0.127E-01  0.127E-01
  16.879  0.119E-01  0.119E-01
  16.889  0.111E-01  0.111E-01
  16.899  0.104E-01  0.104E-01
  16.909  0.967E-02  0.967E-02
  16.919  0.906E-02  0.906E-02
  16.929  0.851E-02  0.851E-02
  16.939  0.805E-02  0.805E-02
  16.949  0.768E-02  0.768E-02
  16.959  0.740E-02  0.740E-02
  16.969  0.722E-02  0.722E-02
  16.979  0.714E-02  0.714E-02
  16.989  0.717E-02  0.717E-02
  16.999  0.731E-02  0.731E-02
  17.009  0.754E-02  0.754E-02
  17.019  0.788E-02  0.788E-02
  17.029  0.832E-02  0.832E-02
  17.039  0.884E-02  0.884E-02
  17.049  0.945E-02  0.945E-02
  17.059  0.101E-01  0.101E-01
  17.069  0.109E-01  0.109E-01
  17.079  0.117E-01  0.117E-01
  17.089  0.126E-01  0.126E-01
  17.099  0.135E-01  0.135E-01
  17.109  0.145E-01  0.145E-01
  17.119  0.155E-01  0.155E-01
  17.129  0.165E-01  0.165E-01
  17.139  0.175E-01  0.175E-01
  17.149  0.185E-01  0.185E-01
  17.159  0.194E-01  0.194E-01
  17.169  0.203E-01  0.203E-01
  17.179  0.212E-01  0.212E-01
  17.189  0.219E-01  0.219E-01
  17.199  0.226E-01  0.226E-01
  17.209  0.231E-01  0.231E-01
  17.219  0.235E-01  0.235E-01
  17.229  0.238E-01  0.238E-01
  17.239  0.239E-01  0.239E-01
  17.249  0.238E-01  0.238E-01
  17.259  0.236E-01  0.236E-01
  17.269  0.232E-01  0.232E-01
  17.279  0.226E-01  0.226E-01
  17.289  0.218E-01  0.218E-01
  17.299  0.210E-01  0.210E-01
  17.309  0.199E-01  0.199E-01
  17.319  0.188E-01  0.188E-01
  17.329  0.176E-01  0.176E-01
  17.339  0.164E-01  0.164E-01
  17.349  0.151E-01  0.151E-01
  17.359  0.137E-01  0.137E-01
  17.369  0.124E-01  0.124E-01
  17.379  0.112E-01  0.112E-01
  17.389  0.993E-02  0.993E-02
  17.399  0.877E-02  0.877E-02
  17.409  0.769E-02  0.769E-02
  17.419  0.669E-02  0.669E-02
  17.429  0.579E-02  0.579E-02
  17.439  0.498E-02  0.498E-02
  17.449  0.426E-02  0.426E-02
  17.459  0.364E-02  0.364E-02
  17.469  0.310E-02  0.310E-02
  17.479  0.263E-02  0.263E-02
  17.489  0.224E-02  0.224E-02
  17.499  0.191E-02  0.191E-02
  17.509  0.164E-02  0.164E-02
  17.519  0.142E-02  0.142E-02
  17.529  0.123E-02  0.123E-02
  17.539  0.108E-02  0.108E-02
  17.549  0.964E-03  0.964E-03
  17.559  0.868E-03  0.868E-03
  17.569  0.792E-03  0.792E-03
  17.579  0.733E-03  0.733E-03
  17.589  0.689E-03  0.689E-03
  17.599  0.657E-03  0.657E-03
  17.609  0.636E-03  0.636E-03
  17.619  0.624E-03  0.624E-03
  17.629  0.620E-03  0.620E-03
  17.639  0.623E-03  0.623E-03
  17.649  0.632E-03  0.632E-03
  17.659  0.645E-03  0.645E-03
  17.669  0.663E-03  0.663E-03
  17.679  0.684E-03  0.684E-03
  17.689  0.709E-03  0.709E-03
  17.699  0.735E-03  0.735E-03
  17.709  0.764E-03  0.764E-03
  17.719  0.794E-03  0.794E-03
  17.729  0.828E-03  0.828E-03
  17.739  0.864E-03  0.864E-03
  17.749  0.904E-03  0.904E-03
  17.759  0.951E-03  0.951E-03
  17.769  0.100E-02  0.100E-02
  17.779  0.107E-02  0.107E-02
  17.789  0.115E-02  0.115E-02
  17.799  0.124E-02  0.124E-02
  17.809  0.136E-02  0.136E-02
  17.819  0.150E-02  0.150E-02
  17.829  0.167E-02  0.167E-02
  17.839  0.187E-02  0.187E-02
  17.849  0.212E-02  0.212E-02
  17.859  0.240E-02  0.240E-02
  17.869  0.274E-02  0.274E-02
  17.879  0.312E-02  0.312E-02
  17.889  0.355E-02  0.355E-02
  17.899  0.404E-02  0.404E-02
  17.909  0.458E-02  0.458E-02
  17.919  0.518E-02  0.518E-02
  17.929  0.582E-02  0.582E-02
  17.939  0.652E-02  0.652E-02
  17.949  0.726E-02  0.726E-02
  17.959  0.803E-02  0.803E-02
  17.969  0.884E-02  0.884E-02
  17.979  0.967E-02  0.967E-02
  17.989  0.105E-01  0.105E-01
  17.999  0.114E-01  0.114E-01
  18.009  0.122E-01  0.122E-01
  18.019  0.131E-01  0.131E-01
  18.029  0.139E-01  0.139E-01
  18.039  0.147E-01  0.147E-01
  18.049  0.154E-01  0.154E-01
  18.059  0.161E-01  0.161E-01
  18.069  0.168E-01  0.168E-01
  18.079  0.174E-01  0.174E-01
  18.089  0.179E-01  0.179E-01
  18.099  0.184E-01  0.184E-01
  18.109  0.188E-01  0.188E-01
  18.119  0.191E-01  0.191E-01
  18.129  0.193E-01  0.193E-01
  18.139  0.195E-01  0.195E-01
  18.149  0.196E-01  0.196E-01
  18.159  0.197E-01  0.197E-01
  18.169  0.197E-01  0.197E-01
  18.179  0.196E-01  0.196E-01
  18.189  0.195E-01  0.195E-01
  18.199  0.193E-01  0.193E-01
  18.209  0.191E-01  0.191E-01
  18.219  0.188E-01  0.188E-01
  18.229  0.185E-01  0.185E-01
  18.239  0.182E-01  0.182E-01
  18.249  0.179E-01  0.179E-01
  18.259  0.175E-01  0.175E-01
  18.269  0.171E-01  0.171E-01
  18.279  0.166E-01  0.166E-01
  18.289  0.162E-01  0.162E-01
  18.299  0.157E-01  0.157E-01
  18.309  0.152E-01  0.152E-01
  18.319  0.147E-01  0.147E-01
  18.329  0.142E-01  0.142E-01
  18.339  0.137E-01  0.137E-01
  18.349  0.132E-01  0.132E-01
  18.359  0.127E-01  0.127E-01
  18.369  0.122E-01  0.122E-01
  18.379  0.117E-01  0.117E-01
  18.389  0.112E-01  0.112E-01
  18.399  0.107E-01  0.107E-01
  18.409  0.102E-01  0.102E-01
  18.419  0.966E-02  0.966E-02
  18.429  0.916E-02  0.916E-02
  18.439  0.867E-02  0.867E-02
  18.449  0.819E-02  0.819E-02
  18.459  0.772E-02  0.772E-02
  18.469  0.726E-02  0.726E-02
  18.479  0.682E-02  0.682E-02
  18.489  0.640E-02  0.640E-02
  18.499  0.600E-02  0.600E-02
  18.509  0.564E-02  0.564E-02
  18.519  0.532E-02  0.532E-02
  18.529  0.505E-02  0.505E-02
  18.539  0.483E-02  0.483E-02
  18.549  0.468E-02  0.468E-02
  18.559  0.459E-02  0.459E-02
  18.569  0.458E-02  0.458E-02
  18.579  0.465E-02  0.465E-02
  18.589  0.482E-02  0.482E-02
  18.599  0.510E-02  0.510E-02
  18.609  0.548E-02  0.548E-02
  18.619  0.598E-02  0.598E-02
  18.629  0.660E-02  0.660E-02
  18.639  0.735E-02  0.735E-02
  18.649  0.824E-02  0.824E-02
  18.659  0.926E-02  0.926E-02
  18.669  0.104E-01  0.104E-01
  18.679  0.117E-01  0.117E-01
  18.689  0.132E-01  0.132E-01
  18.699  0.147E-01  0.147E-01
  18.709  0.164E-01  0.164E-01
  18.719  0.182E-01  0.182E-01
  18.729  0.200E-01  0.200E-01
  18.739  0.219E-01  0.219E-01
  18.749  0.239E-01  0.239E-01
  18.759  0.258E-01  0.258E-01
  18.769  0.276E-01  0.276E-01
  18.779  0.294E-01  0.294E-01
  18.789  0.311E-01  0.311E-01
  18.799  0.326E-01  0.326E-01
  18.809  0.339E-01  0.339E-01
  18.819  0.349E-01  0.349E-01
  18.829  0.357E-01  0.357E-01
  18.839  0.362E-01  0.362E-01
  18.849  0.364E-01  0.364E-01
  18.859  0.363E-01  0.363E-01
  18.869  0.359E-01  0.359E-01
  18.879  0.352E-01  0.352E-01
  18.889  0.343E-01  0.343E-01
  18.899  0.331E-01  0.331E-01
  18.909  0.317E-01  0.317E-01
  18.919  0.301E-01  0.301E-01
  18.929  0.284E-01  0.284E-01
  18.939  0.267E-01  0.267E-01
  18.949  0.248E-01  0.248E-01
  18.959  0.230E-01  0.230E-01
  18.969  0.213E-01  0.213E-01
  18.979  0.196E-01  0.196E-01
  18.989  0.180E-01  0.180E-01
  18.999  0.165E-01  0.165E-01
  19.009  0.152E-01  0.152E-01
  19.019  0.141E-01  0.141E-01
  19.029  0.131E-01  0.131E-01
  19.039  0.123E-01  0.123E-01
  19.049  0.116E-01  0.116E-01
  19.059  0.111E-01  0.111E-01
  19.069  0.108E-01  0.108E-01
  19.079  0.106E-01  0.106E-01
  19.089  0.106E-01  0.106E-01
  19.099  0.107E-01  0.107E-01
  19.109  0.109E-01  0.109E-01
  19.119  0.112E-01  0.112E-01
  19.129  0.116E-01  0.116E-01
  19.139  0.121E-01  0.121E-01
  19.149  0.127E-01  0.127E-01
  19.159  0.134E-01  0.134E-01
  19.169  0.142E-01  0.142E-01
  19.179  0.150E-01  0.150E-01
  19.189  0.158E-01  0.158E-01
  19.199  0.168E-01  0.168E-01
  19.209  0.177E-01  0.177E-01
  19.219  0.187E-01  0.187E-01
  19.229  0.196E-01  0.196E-01
  19.239  0.205E-01  0.205E-01
  19.249  0.215E-01  0.215E-01
  19.259  0.223E-01  0.223E-01
  19.269  0.231E-01  0.231E-01
  19.279  0.238E-01  0.238E-01
  19.289  0.244E-01  0.244E-01
  19.299  0.248E-01  0.248E-01
  19.309  0.252E-01  0.252E-01
  19.319  0.254E-01  0.254E-01
  19.329  0.256E-01  0.256E-01
  19.339  0.256E-01  0.256E-01
  19.349  0.255E-01  0.255E-01
  19.359  0.252E-01  0.252E-01
  19.369  0.249E-01  0.249E-01
  19.379  0.246E-01  0.246E-01
  19.389  0.241E-01  0.241E-01
  19.399  0.237E-01  0.237E-01
  19.409  0.232E-01  0.232E-01
  19.419  0.226E-01  0.226E-01
  19.429  0.221E-01  0.221E-01
  19.439  0.216E-01  0.216E-01
  19.449  0.211E-01  0.211E-01
  19.459  0.207E-01  0.207E-01
  19.469  0.203E-01  0.203E-01
  19.479  0.199E-01  0.199E-01
  19.489  0.195E-01  0.195E-01
  19.499  0.192E-01  0.192E-01
  19.509  0.189E-01  0.189E-01
  19.519  0.186E-01  0.186E-01
  19.529  0.184E-01  0.184E-01
  19.539  0.181E-01  0.181E-01
  19.549  0.178E-01  0.178E-01
  19.559  0.175E-01  0.175E-01
  19.569  0.172E-01  0.172E-01
  19.579  0.169E-01  0.169E-01
  19.589  0.165E-01  0.165E-01
  19.599  0.161E-01  0.161E-01
  19.609  0.156E-01  0.156E-01
  19.619  0.152E-01  0.152E-01
  19.629  0.147E-01  0.147E-01
  19.639  0.141E-01  0.141E-01
  19.649  0.136E-01  0.136E-01
  19.659  0.132E-01  0.132E-01
  19.669  0.127E-01  0.127E-01
  19.679  0.123E-01  0.123E-01
  19.689  0.119E-01  0.119E-01
  19.699  0.116E-01  0.116E-01
  19.709  0.114E-01  0.114E-01
  19.719  0.113E-01  0.113E-01
  19.729  0.113E-01  0.113E-01
  19.739  0.114E-01  0.114E-01
  19.749  0.116E-01  0.116E-01
  19.759  0.119E-01  0.119E-01
  19.769  0.123E-01  0.123E-01
  19.779  0.127E-01  0.127E-01
  19.789  0.132E-01  0.132E-01
  19.799  0.137E-01  0.137E-01
  19.809  0.142E-01  0.142E-01
  19.819  0.147E-01  0.147E-01
  19.829  0.152E-01  0.152E-01
  19.839  0.155E-01  0.155E-01
  19.849  0.158E-01  0.158E-01
  19.859  0.159E-01  0.159E-01
  19.869  0.160E-01  0.160E-01
  19.879  0.159E-01  0.159E-01
  19.889  0.157E-01  0.157E-01
  19.899  0.153E-01  0.153E-01
  19.909  0.148E-01  0.148E-01
  19.919  0.142E-01  0.142E-01
  19.929  0.135E-01  0.135E-01
  19.939  0.127E-01  0.127E-01
  19.949  0.119E-01  0.119E-01
  19.959  0.111E-01  0.111E-01
  19.969  0.102E-01  0.102E-01
  19.979  0.932E-02  0.932E-02
  19.989  0.849E-02  0.849E-02
  19.999  0.771E-02  0.771E-02
  20.009  0.699E-02  0.699E-02
  20.019  0.634E-02  0.634E-02
  20.029  0.576E-02  0.576E-02
  20.039  0.527E-02  0.527E-02
  20.049  0.486E-02  0.486E-02
  20.059  0.453E-02  0.453E-02
  20.069  0.427E-02  0.427E-02
  20.079  0.407E-02  0.407E-02
  20.089  0.393E-02  0.393E-02
  20.099  0.384E-02  0.384E-02
  20.109  0.378E-02  0.378E-02
  20.119  0.374E-02  0.374E-02
  20.129  0.371E-02  0.371E-02
  20.139  0.369E-02  0.369E-02
  20.149  0.366E-02  0.366E-02
  20.159  0.363E-02  0.363E-02
  20.169  0.357E-02  0.357E-02
  20.179  0.350E-02  0.350E-02
  20.189  0.340E-02  0.340E-02
  20.199  0.329E-02  0.329E-02
  20.209  0.316E-02  0.316E-02
  20.219  0.301E-02  0.301E-02
  20.229  0.285E-02  0.285E-02
  20.239  0.268E-02  0.268E-02
  20.249  0.251E-02  0.251E-02
  20.259  0.235E-02  0.235E-02
  20.269  0.219E-02  0.219E-02
  20.279  0.205E-02  0.205E-02
  20.289  0.193E-02  0.193E-02
  20.299  0.184E-02  0.184E-02
  20.309  0.177E-02  0.177E-02
  20.319  0.174E-02  0.174E-02
  20.329  0.173E-02  0.173E-02
  20.339  0.175E-02  0.175E-02
  20.349  0.181E-02  0.181E-02
  20.359  0.189E-02  0.189E-02
  20.369  0.200E-02  0.200E-02
  20.379  0.213E-02  0.213E-02
  20.389  0.227E-02  0.227E-02
  20.399  0.243E-02  0.243E-02
  20.409  0.260E-02  0.260E-02
  20.419  0.277E-02  0.277E-02
  20.429  0.293E-02  0.293E-02
  20.439  0.308E-02  0.308E-02
  20.449  0.322E-02  0.322E-02
  20.459  0.335E-02  0.335E-02
  20.469  0.345E-02  0.345E-02
  20.479  0.353E-02  0.353E-02
  20.489  0.359E-02  0.359E-02
  20.499  0.362E-02  0.362E-02
  20.509  0.364E-02  0.364E-02
  20.519  0.364E-02  0.364E-02
  20.529  0.362E-02  0.362E-02
  20.539  0.359E-02  0.359E-02
  20.549  0.356E-02  0.356E-02
  20.559  0.353E-02  0.353E-02
  20.569  0.350E-02  0.350E-02
  20.579  0.348E-02  0.348E-02
  20.589  0.347E-02  0.347E-02
  20.599  0.347E-02  0.347E-02
  20.609  0.350E-02  0.350E-02
  20.619  0.354E-02  0.354E-02
  20.629  0.361E-02  0.361E-02
  20.639  0.370E-02  0.370E-02
  20.649  0.381E-02  0.381E-02
  20.659  0.394E-02  0.394E-02
  20.669  0.409E-02  0.409E-02
  20.679  0.426E-02  0.426E-02
  20.689  0.445E-02  0.445E-02
  20.699  0.464E-02  0.464E-02
  20.709  0.485E-02  0.485E-02
  20.719  0.506E-02  0.506E-02
  20.729  0.528E-02  0.528E-02
  20.739  0.550E-02  0.550E-02
  20.749  0.571E-02  0.571E-02
  20.759  0.592E-02  0.592E-02
  20.769  0.612E-02  0.612E-02
  20.779  0.631E-02  0.631E-02
  20.789  0.648E-02  0.648E-02
  20.799  0.663E-02  0.663E-02
  20.809  0.676E-02  0.676E-02
  20.819  0.686E-02  0.686E-02
  20.829  0.693E-02  0.693E-02
  20.839  0.697E-02  0.697E-02
  20.849  0.699E-02  0.699E-02
  20.859  0.697E-02  0.697E-02
  20.869  0.692E-02  0.692E-02
  20.879  0.685E-02  0.685E-02
  20.889  0.674E-02  0.674E-02
  20.899  0.662E-02  0.662E-02
  20.909  0.647E-02  0.647E-02
  20.919  0.631E-02  0.631E-02
  20.929  0.614E-02  0.614E-02
  20.939  0.596E-02  0.596E-02
  20.949  0.578E-02  0.578E-02
  20.959  0.561E-02  0.561E-02
  20.969  0.544E-02  0.544E-02
  20.979  0.528E-02  0.528E-02
  20.989  0.514E-02  0.514E-02
  20.999  0.502E-02  0.502E-02
  21.009  0.491E-02  0.491E-02
  21.019  0.483E-02  0.483E-02
  21.029  0.476E-02  0.476E-02
  21.039  0.472E-02  0.472E-02
  21.049  0.470E-02  0.470E-02
  21.059  0.470E-02  0.470E-02
  21.069  0.471E-02  0.471E-02
  21.079  0.474E-02  0.474E-02
  21.089  0.478E-02  0.478E-02
  21.099  0.483E-02  0.483E-02
  21.109  0.488E-02  0.488E-02
  21.119  0.494E-02  0.494E-02
  21.129  0.500E-02  0.500E-02
  21.139  0.506E-02  0.506E-02
  21.149  0.512E-02  0.512E-02
  21.159  0.517E-02  0.517E-02
  21.169  0.521E-02  0.521E-02
  21.179  0.525E-02  0.525E-02
  21.189  0.527E-02  0.527E-02
  21.199  0.530E-02  0.530E-02
  21.209  0.531E-02  0.531E-02
  21.219  0.532E-02  0.532E-02
  21.229  0.532E-02  0.532E-02
  21.239  0.532E-02  0.532E-02
  21.249  0.531E-02  0.531E-02
  21.259  0.530E-02  0.530E-02
  21.269  0.529E-02  0.529E-02
  21.279  0.527E-02  0.527E-02
  21.289  0.525E-02  0.525E-02
  21.299  0.523E-02  0.523E-02
  21.309  0.520E-02  0.520E-02
  21.319  0.517E-02  0.517E-02
  21.329  0.514E-02  0.514E-02
  21.339  0.510E-02  0.510E-02
  21.349  0.505E-02  0.505E-02
  21.359  0.499E-02  0.499E-02
  21.369  0.491E-02  0.491E-02
  21.379  0.483E-02  0.483E-02
  21.389  0.473E-02  0.473E-02
  21.399  0.463E-02  0.463E-02
  21.409  0.450E-02  0.450E-02
  21.419  0.437E-02  0.437E-02
  21.429  0.423E-02  0.423E-02
  21.439  0.408E-02  0.408E-02
  21.449  0.392E-02  0.392E-02
  21.459  0.376E-02  0.376E-02
  21.469  0.360E-02  0.360E-02
  21.479  0.345E-02  0.345E-02
  21.489  0.331E-02  0.331E-02
  21.499  0.317E-02  0.317E-02
  21.509  0.305E-02  0.305E-02
  21.519  0.294E-02  0.294E-02
  21.529  0.285E-02  0.285E-02
  21.539  0.278E-02  0.278E-02
  21.549  0.272E-02  0.272E-02
  21.559  0.268E-02  0.268E-02
  21.569  0.266E-02  0.266E-02
  21.579  0.264E-02  0.264E-02
  21.589  0.264E-02  0.264E-02
  21.599  0.265E-02  0.265E-02
  21.609  0.267E-02  0.267E-02
  21.619  0.269E-02  0.269E-02
  21.629  0.272E-02  0.272E-02
  21.639  0.276E-02  0.276E-02
  21.649  0.279E-02  0.279E-02
  21.659  0.283E-02  0.283E-02
  21.669  0.288E-02  0.288E-02
  21.679  0.293E-02  0.293E-02
  21.689  0.298E-02  0.298E-02
  21.699  0.303E-02  0.303E-02
  21.709  0.308E-02  0.308E-02
  21.719  0.314E-02  0.314E-02
  21.729  0.319E-02  0.319E-02
  21.739  0.325E-02  0.325E-02
  21.749  0.330E-02  0.330E-02
  21.759  0.334E-02  0.334E-02
  21.769  0.338E-02  0.338E-02
  21.779  0.341E-02  0.341E-02
  21.789  0.342E-02  0.342E-02
  21.799  0.343E-02  0.343E-02
  21.809  0.342E-02  0.342E-02
  21.819  0.339E-02  0.339E-02
  21.829  0.335E-02  0.335E-02
  21.839  0.329E-02  0.329E-02
  21.849  0.322E-02  0.322E-02
  21.859  0.314E-02  0.314E-02
  21.869  0.304E-02  0.304E-02
  21.879  0.293E-02  0.293E-02
  21.889  0.282E-02  0.282E-02
  21.899  0.270E-02  0.270E-02
  21.909  0.258E-02  0.258E-02
  21.919  0.246E-02  0.246E-02
  21.929  0.235E-02  0.235E-02
  21.939  0.226E-02  0.226E-02
  21.949  0.217E-02  0.217E-02
  21.959  0.210E-02  0.210E-02
  21.969  0.205E-02  0.205E-02
  21.979  0.202E-02  0.202E-02
  21.989  0.201E-02  0.201E-02
  21.999  0.203E-02  0.203E-02
  22.009  0.207E-02  0.207E-02
  22.019  0.213E-02  0.213E-02
  22.029  0.222E-02  0.222E-02
  22.039  0.233E-02  0.233E-02
  22.049  0.245E-02  0.245E-02
  22.059  0.258E-02  0.258E-02
  22.069  0.273E-02  0.273E-02
  22.079  0.288E-02  0.288E-02
  22.089  0.303E-02  0.303E-02
  22.099  0.317E-02  0.317E-02
  22.109  0.331E-02  0.331E-02
  22.119  0.343E-02  0.343E-02
  22.129  0.353E-02  0.353E-02
  22.139  0.361E-02  0.361E-02
  22.149  0.367E-02  0.367E-02
  22.159  0.371E-02  0.371E-02
  22.169  0.371E-02  0.371E-02
  22.179  0.370E-02  0.370E-02
  22.189  0.366E-02  0.366E-02
  22.199  0.360E-02  0.360E-02
  22.209  0.353E-02  0.353E-02
  22.219  0.344E-02  0.344E-02
  22.229  0.334E-02  0.334E-02
  22.239  0.323E-02  0.323E-02
  22.249  0.312E-02  0.312E-02
  22.259  0.301E-02  0.301E-02
  22.269  0.290E-02  0.290E-02
  22.279  0.280E-02  0.280E-02
  22.289  0.271E-02  0.271E-02
  22.299  0.263E-02  0.263E-02
  22.309  0.256E-02  0.256E-02
  22.319  0.250E-02  0.250E-02
  22.329  0.246E-02  0.246E-02
  22.339  0.243E-02  0.243E-02
  22.349  0.242E-02  0.242E-02
  22.359  0.242E-02  0.242E-02
  22.369  0.243E-02  0.243E-02
  22.379  0.246E-02  0.246E-02
  22.389  0.250E-02  0.250E-02
  22.399  0.255E-02  0.255E-02
  22.409  0.261E-02  0.261E-02
  22.419  0.268E-02  0.268E-02
  22.429  0.277E-02  0.277E-02
  22.439  0.287E-02  0.287E-02
  22.449  0.298E-02  0.298E-02
  22.459  0.311E-02  0.311E-02
  22.469  0.325E-02  0.325E-02
  22.479  0.340E-02  0.340E-02
  22.489  0.357E-02  0.357E-02
  22.499  0.376E-02  0.376E-02
  22.509  0.397E-02  0.397E-02
  22.519  0.419E-02  0.419E-02
  22.529  0.444E-02  0.444E-02
  22.539  0.469E-02  0.469E-02
  22.549  0.496E-02  0.496E-02
  22.559  0.524E-02  0.524E-02
  22.569  0.553E-02  0.553E-02
  22.579  0.582E-02  0.582E-02
  22.589  0.611E-02  0.611E-02
  22.599  0.638E-02  0.638E-02
  22.609  0.665E-02  0.665E-02
  22.619  0.689E-02  0.689E-02
  22.629  0.711E-02  0.711E-02
  22.639  0.730E-02  0.730E-02
  22.649  0.746E-02  0.746E-02
  22.659  0.758E-02  0.758E-02
  22.669  0.767E-02  0.767E-02
  22.679  0.771E-02  0.771E-02
  22.689  0.773E-02  0.773E-02
  22.699  0.770E-02  0.770E-02
  22.709  0.765E-02  0.765E-02
  22.719  0.758E-02  0.758E-02
  22.729  0.748E-02  0.748E-02
  22.739  0.737E-02  0.737E-02
  22.749  0.725E-02  0.725E-02
  22.759  0.713E-02  0.713E-02
  22.769  0.701E-02  0.701E-02
  22.779  0.689E-02  0.689E-02
  22.789  0.678E-02  0.678E-02
  22.799  0.668E-02  0.668E-02
  22.809  0.659E-02  0.659E-02
  22.819  0.652E-02  0.652E-02
  22.829  0.645E-02  0.645E-02
  22.839  0.640E-02  0.640E-02
  22.849  0.636E-02  0.636E-02
  22.859  0.632E-02  0.632E-02
  22.869  0.629E-02  0.629E-02
  22.879  0.625E-02  0.625E-02
  22.889  0.622E-02  0.622E-02
  22.899  0.618E-02  0.618E-02
  22.909  0.613E-02  0.613E-02
  22.919  0.608E-02  0.608E-02
  22.929  0.601E-02  0.601E-02
  22.939  0.593E-02  0.593E-02
  22.949  0.584E-02  0.584E-02
  22.959  0.573E-02  0.573E-02
  22.969  0.561E-02  0.561E-02
  22.979  0.548E-02  0.548E-02
  22.989  0.533E-02  0.533E-02
  22.999  0.518E-02  0.518E-02
  23.009  0.502E-02  0.502E-02
  23.019  0.485E-02  0.485E-02
  23.029  0.468E-02  0.468E-02
  23.039  0.451E-02  0.451E-02
  23.049  0.434E-02  0.434E-02
  23.059  0.418E-02  0.418E-02
  23.069  0.402E-02  0.402E-02
  23.079  0.386E-02  0.386E-02
  23.089  0.371E-02  0.371E-02
  23.099  0.357E-02  0.357E-02
  23.109  0.343E-02  0.343E-02
  23.119  0.329E-02  0.329E-02
  23.129  0.316E-02  0.316E-02
  23.139  0.303E-02  0.303E-02
  23.149  0.290E-02  0.290E-02
  23.159  0.277E-02  0.277E-02
  23.169  0.265E-02  0.265E-02
  23.179  0.252E-02  0.252E-02
  23.189  0.240E-02  0.240E-02
  23.199  0.228E-02  0.228E-02
  23.209  0.217E-02  0.217E-02
  23.219  0.206E-02  0.206E-02
  23.229  0.195E-02  0.195E-02
  23.239  0.186E-02  0.186E-02
  23.249  0.177E-02  0.177E-02
  23.259  0.169E-02  0.169E-02
  23.269  0.163E-02  0.163E-02
  23.279  0.158E-02  0.158E-02
  23.289  0.154E-02  0.154E-02
  23.299  0.151E-02  0.151E-02
  23.309  0.151E-02  0.151E-02
  23.319  0.151E-02  0.151E-02
  23.329  0.153E-02  0.153E-02
  23.339  0.157E-02  0.157E-02
  23.349  0.162E-02  0.162E-02
  23.359  0.168E-02  0.168E-02
  23.369  0.175E-02  0.175E-02
  23.379  0.183E-02  0.183E-02
  23.389  0.192E-02  0.192E-02
  23.399  0.202E-02  0.202E-02
  23.409  0.213E-02  0.213E-02
  23.419  0.224E-02  0.224E-02
  23.429  0.236E-02  0.236E-02
  23.439  0.249E-02  0.249E-02
  23.449  0.261E-02  0.261E-02
  23.459  0.275E-02  0.275E-02
  23.469  0.289E-02  0.289E-02
  23.479  0.303E-02  0.303E-02
  23.489  0.318E-02  0.318E-02
  23.499  0.334E-02  0.334E-02
  23.509  0.350E-02  0.350E-02
  23.519  0.366E-02  0.366E-02
  23.529  0.383E-02  0.383E-02
  23.539  0.400E-02  0.400E-02
  23.549  0.417E-02  0.417E-02
  23.559  0.433E-02  0.433E-02
  23.569  0.449E-02  0.449E-02
  23.579  0.464E-02  0.464E-02
  23.589  0.477E-02  0.477E-02
  23.599  0.489E-02  0.489E-02
  23.609  0.500E-02  0.500E-02
  23.619  0.508E-02  0.508E-02
  23.629  0.515E-02  0.515E-02
  23.639  0.519E-02  0.519E-02
  23.649  0.522E-02  0.522E-02
  23.659  0.523E-02  0.523E-02
  23.669  0.522E-02  0.522E-02
  23.679  0.521E-02  0.521E-02
  23.689  0.519E-02  0.519E-02
  23.699  0.518E-02  0.518E-02
  23.709  0.517E-02  0.517E-02
  23.719  0.517E-02  0.517E-02
  23.729  0.519E-02  0.519E-02
  23.739  0.523E-02  0.523E-02
  23.749  0.529E-02  0.529E-02
  23.759  0.538E-02  0.538E-02
  23.769  0.551E-02  0.551E-02
  23.779  0.566E-02  0.566E-02
  23.789  0.584E-02  0.584E-02
  23.799  0.604E-02  0.604E-02
  23.809  0.627E-02  0.627E-02
  23.819  0.651E-02  0.651E-02
  23.829  0.676E-02  0.676E-02
  23.839  0.701E-02  0.701E-02
  23.849  0.725E-02  0.725E-02
  23.859  0.748E-02  0.748E-02
  23.869  0.768E-02  0.768E-02
  23.879  0.786E-02  0.786E-02
  23.889  0.799E-02  0.799E-02
  23.899  0.808E-02  0.808E-02
  23.909  0.813E-02  0.813E-02
  23.919  0.812E-02  0.812E-02
  23.929  0.807E-02  0.807E-02
  23.939  0.797E-02  0.797E-02
  23.949  0.782E-02  0.782E-02
  23.959  0.764E-02  0.764E-02
  23.969  0.742E-02  0.742E-02
  23.979  0.718E-02  0.718E-02
  23.989  0.692E-02  0.692E-02
  23.999  0.665E-02  0.665E-02
  24.009  0.637E-02  0.637E-02
  24.019  0.610E-02  0.610E-02
  24.029  0.585E-02  0.585E-02
  24.039  0.561E-02  0.561E-02
  24.049  0.539E-02  0.539E-02
  24.059  0.520E-02  0.520E-02
  24.069  0.504E-02  0.504E-02
  24.079  0.490E-02  0.490E-02
  24.089  0.480E-02  0.480E-02
  24.099  0.472E-02  0.472E-02
  24.109  0.466E-02  0.466E-02
  24.119  0.462E-02  0.462E-02
  24.129  0.459E-02  0.459E-02
  24.139  0.458E-02  0.458E-02
  24.149  0.458E-02  0.458E-02
  24.159  0.457E-02  0.457E-02
  24.169  0.457E-02  0.457E-02
  24.179  0.456E-02  0.456E-02
  24.189  0.454E-02  0.454E-02
  24.199  0.451E-02  0.451E-02
  24.209  0.446E-02  0.446E-02
  24.219  0.440E-02  0.440E-02
  24.229  0.432E-02  0.432E-02
  24.239  0.423E-02  0.423E-02
  24.249  0.412E-02  0.412E-02
  24.259  0.400E-02  0.400E-02
  24.269  0.387E-02  0.387E-02
  24.279  0.374E-02  0.374E-02
  24.289  0.360E-02  0.360E-02
  24.299  0.347E-02  0.347E-02
  24.309  0.335E-02  0.335E-02
  24.319  0.324E-02  0.324E-02
  24.329  0.316E-02  0.316E-02
  24.339  0.310E-02  0.310E-02
  24.349  0.306E-02  0.306E-02
  24.359  0.307E-02  0.307E-02
  24.369  0.310E-02  0.310E-02
  24.379  0.317E-02  0.317E-02
  24.389  0.328E-02  0.328E-02
  24.399  0.342E-02  0.342E-02
  24.409  0.359E-02  0.359E-02
  24.419  0.379E-02  0.379E-02
  24.429  0.402E-02  0.402E-02
  24.439  0.426E-02  0.426E-02
  24.449  0.451E-02  0.451E-02
  24.459  0.477E-02  0.477E-02
  24.469  0.503E-02  0.503E-02
  24.479  0.528E-02  0.528E-02
  24.489  0.553E-02  0.553E-02
  24.499  0.576E-02  0.576E-02
  24.509  0.598E-02  0.598E-02
  24.519  0.619E-02  0.619E-02
  24.529  0.638E-02  0.638E-02
  24.539  0.655E-02  0.655E-02
  24.549  0.672E-02  0.672E-02
  24.559  0.688E-02  0.688E-02
  24.569  0.703E-02  0.703E-02
  24.579  0.718E-02  0.718E-02
  24.589  0.734E-02  0.734E-02
  24.599  0.750E-02  0.750E-02
  24.609  0.765E-02  0.765E-02
  24.619  0.782E-02  0.782E-02
  24.629  0.798E-02  0.798E-02
  24.639  0.814E-02  0.814E-02
  24.649  0.829E-02  0.829E-02
  24.659  0.843E-02  0.843E-02
  24.669  0.855E-02  0.855E-02
  24.679  0.864E-02  0.864E-02
  24.689  0.870E-02  0.870E-02
  24.699  0.873E-02  0.873E-02
  24.709  0.871E-02  0.871E-02
  24.719  0.865E-02  0.865E-02
  24.729  0.854E-02  0.854E-02
  24.739  0.838E-02  0.838E-02
  24.749  0.817E-02  0.817E-02
  24.759  0.792E-02  0.792E-02
  24.769  0.763E-02  0.763E-02
  24.779  0.730E-02  0.730E-02
  24.789  0.694E-02  0.694E-02
  24.799  0.656E-02  0.656E-02
  24.809  0.617E-02  0.617E-02
  24.819  0.577E-02  0.577E-02
  24.829  0.536E-02  0.536E-02
  24.839  0.497E-02  0.497E-02
  24.849  0.459E-02  0.459E-02
  24.859  0.422E-02  0.422E-02
  24.869  0.388E-02  0.388E-02
  24.879  0.357E-02  0.357E-02
  24.889  0.329E-02  0.329E-02
  24.899  0.305E-02  0.305E-02
  24.909  0.284E-02  0.284E-02
  24.919  0.268E-02  0.268E-02
  24.929  0.255E-02  0.255E-02
  24.939  0.246E-02  0.246E-02
  24.949  0.240E-02  0.240E-02
  24.959  0.239E-02  0.239E-02
  24.969  0.241E-02  0.241E-02
  24.979  0.246E-02  0.246E-02
  24.989  0.254E-02  0.254E-02
  24.999  0.265E-02  0.265E-02
  25.009  0.278E-02  0.278E-02
  25.019  0.293E-02  0.293E-02
  25.029  0.310E-02  0.310E-02
  25.039  0.327E-02  0.327E-02
  25.049  0.346E-02  0.346E-02
  25.059  0.364E-02  0.364E-02
  25.069  0.381E-02  0.381E-02
  25.079  0.398E-02  0.398E-02
  25.089  0.414E-02  0.414E-02
  25.099  0.427E-02  0.427E-02
  25.109  0.439E-02  0.439E-02
  25.119  0.447E-02  0.447E-02
  25.129  0.453E-02  0.453E-02
  25.139  0.456E-02  0.456E-02
  25.149  0.455E-02  0.455E-02
  25.159  0.451E-02  0.451E-02
  25.169  0.443E-02  0.443E-02
  25.179  0.433E-02  0.433E-02
  25.189  0.419E-02  0.419E-02
  25.199  0.403E-02  0.403E-02
  25.209  0.384E-02  0.384E-02
  25.219  0.363E-02  0.363E-02
  25.229  0.341E-02  0.341E-02
  25.239  0.318E-02  0.318E-02
  25.249  0.294E-02  0.294E-02
  25.259  0.270E-02  0.270E-02
  25.269  0.247E-02  0.247E-02
  25.279  0.224E-02  0.224E-02
  25.289  0.203E-02  0.203E-02
  25.299  0.184E-02  0.184E-02
  25.309  0.167E-02  0.167E-02
  25.319  0.152E-02  0.152E-02
  25.329  0.139E-02  0.139E-02
  25.339  0.129E-02  0.129E-02
  25.349  0.122E-02  0.122E-02
  25.359  0.117E-02  0.117E-02
  25.369  0.116E-02  0.116E-02
  25.379  0.116E-02  0.116E-02
  25.389  0.119E-02  0.119E-02
  25.399  0.125E-02  0.125E-02
  25.409  0.132E-02  0.132E-02
  25.419  0.141E-02  0.141E-02
  25.429  0.152E-02  0.152E-02
  25.439  0.164E-02  0.164E-02
  25.449  0.177E-02  0.177E-02
  25.459  0.190E-02  0.190E-02
  25.469  0.204E-02  0.204E-02
  25.479  0.217E-02  0.217E-02
  25.489  0.230E-02  0.230E-02
  25.499  0.243E-02  0.243E-02
  25.509  0.255E-02  0.255E-02
  25.519  0.266E-02  0.266E-02
  25.529  0.275E-02  0.275E-02
  25.539  0.284E-02  0.284E-02
  25.549  0.291E-02  0.291E-02
  25.559  0.298E-02  0.298E-02
  25.569  0.303E-02  0.303E-02
  25.579  0.309E-02  0.309E-02
  25.589  0.314E-02  0.314E-02
  25.599  0.318E-02  0.318E-02
  25.609  0.324E-02  0.324E-02
  25.619  0.330E-02  0.330E-02
  25.629  0.336E-02  0.336E-02
  25.639  0.344E-02  0.344E-02
  25.649  0.353E-02  0.353E-02
  25.659  0.364E-02  0.364E-02
  25.669  0.376E-02  0.376E-02
  25.679  0.389E-02  0.389E-02
  25.689  0.403E-02  0.403E-02
  25.699  0.417E-02  0.417E-02
  25.709  0.433E-02  0.433E-02
  25.719  0.448E-02  0.448E-02
  25.729  0.462E-02  0.462E-02
  25.739  0.475E-02  0.475E-02
  25.749  0.487E-02  0.487E-02
  25.759  0.496E-02  0.496E-02
  25.769  0.503E-02  0.503E-02
  25.779  0.507E-02  0.507E-02
  25.789  0.508E-02  0.508E-02
  25.799  0.505E-02  0.505E-02
  25.809  0.499E-02  0.499E-02
  25.819  0.488E-02  0.488E-02
  25.829  0.475E-02  0.475E-02
  25.839  0.458E-02  0.458E-02
  25.849  0.439E-02  0.439E-02
  25.859  0.417E-02  0.417E-02
  25.869  0.393E-02  0.393E-02
  25.879  0.367E-02  0.367E-02
  25.889  0.341E-02  0.341E-02
  25.899  0.314E-02  0.314E-02
  25.909  0.288E-02  0.288E-02
  25.919  0.262E-02  0.262E-02
  25.929  0.237E-02  0.237E-02
  25.939  0.213E-02  0.213E-02
  25.949  0.191E-02  0.191E-02
  25.959  0.170E-02  0.170E-02
  25.969  0.152E-02  0.152E-02
  25.979  0.135E-02  0.135E-02
  25.989  0.120E-02  0.120E-02
  25.999  0.108E-02  0.108E-02
  26.009  0.966E-03  0.966E-03
  26.019  0.873E-03  0.873E-03
  26.029  0.796E-03  0.796E-03
  26.039  0.734E-03  0.734E-03
  26.049  0.685E-03  0.685E-03
  26.059  0.648E-03  0.648E-03
  26.069  0.623E-03  0.623E-03
  26.079  0.609E-03  0.609E-03
  26.089  0.605E-03  0.605E-03
  26.099  0.612E-03  0.612E-03
  26.109  0.630E-03  0.630E-03
  26.119  0.658E-03  0.658E-03
  26.129  0.699E-03  0.699E-03
  26.139  0.751E-03  0.751E-03
  26.149  0.816E-03  0.816E-03
  26.159  0.895E-03  0.895E-03
  26.169  0.987E-03  0.987E-03
  26.179  0.109E-02  0.109E-02
  26.189  0.121E-02  0.121E-02
  26.199  0.135E-02  0.135E-02
  26.209  0.149E-02  0.149E-02
  26.219  0.165E-02  0.165E-02
  26.229  0.182E-02  0.182E-02
  26.239  0.199E-02  0.199E-02
  26.249  0.217E-02  0.217E-02
  26.259  0.234E-02  0.234E-02
  26.269  0.252E-02  0.252E-02
  26.279  0.269E-02  0.269E-02
  26.289  0.284E-02  0.284E-02
  26.299  0.299E-02  0.299E-02
  26.309  0.311E-02  0.311E-02
  26.319  0.322E-02  0.322E-02
  26.329  0.331E-02  0.331E-02
  26.339  0.337E-02  0.337E-02
  26.349  0.341E-02  0.341E-02
  26.359  0.343E-02  0.343E-02
  26.369  0.342E-02  0.342E-02
  26.379  0.339E-02  0.339E-02
  26.389  0.335E-02  0.335E-02
  26.399  0.329E-02  0.329E-02
  26.409  0.321E-02  0.321E-02
  26.419  0.313E-02  0.313E-02
  26.429  0.304E-02  0.304E-02
  26.439  0.295E-02  0.295E-02
  26.449  0.286E-02  0.286E-02
  26.459  0.278E-02  0.278E-02
  26.469  0.270E-02  0.270E-02
  26.479  0.262E-02  0.262E-02
  26.489  0.255E-02  0.255E-02
  26.499  0.249E-02  0.249E-02
  26.509  0.244E-02  0.244E-02
  26.519  0.239E-02  0.239E-02
  26.529  0.235E-02  0.235E-02
  26.539  0.232E-02  0.232E-02
  26.549  0.228E-02  0.228E-02
  26.559  0.225E-02  0.225E-02
  26.569  0.221E-02  0.221E-02
  26.579  0.217E-02  0.217E-02
  26.589  0.213E-02  0.213E-02
  26.599  0.208E-02  0.208E-02
  26.609  0.202E-02  0.202E-02
  26.619  0.196E-02  0.196E-02
  26.629  0.190E-02  0.190E-02
  26.639  0.182E-02  0.182E-02
  26.649  0.175E-02  0.175E-02
  26.659  0.167E-02  0.167E-02
  26.669  0.160E-02  0.160E-02
  26.679  0.152E-02  0.152E-02
  26.689  0.145E-02  0.145E-02
  26.699  0.139E-02  0.139E-02
  26.709  0.134E-02  0.134E-02
  26.719  0.129E-02  0.129E-02
  26.729  0.126E-02  0.126E-02
  26.739  0.125E-02  0.125E-02
  26.749  0.124E-02  0.124E-02
  26.759  0.126E-02  0.126E-02
  26.769  0.128E-02  0.128E-02
  26.779  0.133E-02  0.133E-02
  26.789  0.138E-02  0.138E-02
  26.799  0.145E-02  0.145E-02
  26.809  0.152E-02  0.152E-02
  26.819  0.161E-02  0.161E-02
  26.829  0.169E-02  0.169E-02
  26.839  0.178E-02  0.178E-02
  26.849  0.186E-02  0.186E-02
  26.859  0.194E-02  0.194E-02
  26.869  0.202E-02  0.202E-02
  26.879  0.208E-02  0.208E-02
  26.889  0.212E-02  0.212E-02
  26.899  0.215E-02  0.215E-02
  26.909  0.217E-02  0.217E-02
  26.919  0.216E-02  0.216E-02
  26.929  0.214E-02  0.214E-02
  26.939  0.210E-02  0.210E-02
  26.949  0.205E-02  0.205E-02
  26.959  0.198E-02  0.198E-02
  26.969  0.189E-02  0.189E-02
  26.979  0.180E-02  0.180E-02
  26.989  0.170E-02  0.170E-02
  26.999  0.160E-02  0.160E-02
  27.009  0.149E-02  0.149E-02
  27.019  0.138E-02  0.138E-02
  27.029  0.128E-02  0.128E-02
  27.039  0.118E-02  0.118E-02
  27.049  0.109E-02  0.109E-02
  27.059  0.101E-02  0.101E-02
  27.069  0.946E-03  0.946E-03
  27.079  0.889E-03  0.889E-03
  27.089  0.845E-03  0.845E-03
  27.099  0.814E-03  0.814E-03
  27.109  0.796E-03  0.796E-03
  27.119  0.791E-03  0.791E-03
  27.129  0.798E-03  0.798E-03
  27.139  0.818E-03  0.818E-03
  27.149  0.850E-03  0.850E-03
  27.159  0.893E-03  0.893E-03
  27.169  0.947E-03  0.947E-03
  27.179  0.101E-02  0.101E-02
  27.189  0.109E-02  0.109E-02
  27.199  0.117E-02  0.117E-02
  27.209  0.127E-02  0.127E-02
  27.219  0.137E-02  0.137E-02
  27.229  0.148E-02  0.148E-02
  27.239  0.159E-02  0.159E-02
  27.249  0.172E-02  0.172E-02
  27.259  0.184E-02  0.184E-02
  27.269  0.197E-02  0.197E-02
  27.279  0.210E-02  0.210E-02
  27.289  0.223E-02  0.223E-02
  27.299  0.235E-02  0.235E-02
  27.309  0.247E-02  0.247E-02
  27.319  0.258E-02  0.258E-02
  27.329  0.268E-02  0.268E-02
  27.339  0.277E-02  0.277E-02
  27.349  0.285E-02  0.285E-02
  27.359  0.290E-02  0.290E-02
  27.369  0.294E-02  0.294E-02
  27.379  0.296E-02  0.296E-02
  27.389  0.296E-02  0.296E-02
  27.399  0.293E-02  0.293E-02
  27.409  0.288E-02  0.288E-02
  27.419  0.282E-02  0.282E-02
  27.429  0.273E-02  0.273E-02
  27.439  0.262E-02  0.262E-02
  27.449  0.250E-02  0.250E-02
  27.459  0.236E-02  0.236E-02
  27.469  0.222E-02  0.222E-02
  27.479  0.206E-02  0.206E-02
  27.489  0.191E-02  0.191E-02
  27.499  0.175E-02  0.175E-02
  27.509  0.159E-02  0.159E-02
  27.519  0.144E-02  0.144E-02
  27.529  0.129E-02  0.129E-02
  27.539  0.115E-02  0.115E-02
  27.549  0.102E-02  0.102E-02
  27.559  0.903E-03  0.903E-03
  27.569  0.798E-03  0.798E-03
  27.579  0.706E-03  0.706E-03
  27.589  0.627E-03  0.627E-03
  27.599  0.560E-03  0.560E-03
  27.609  0.506E-03  0.506E-03
  27.619  0.463E-03  0.463E-03
  27.629  0.431E-03  0.431E-03
  27.639  0.409E-03  0.409E-03
  27.649  0.396E-03  0.396E-03
  27.659  0.391E-03  0.391E-03
  27.669  0.394E-03  0.394E-03
  27.679  0.404E-03  0.404E-03
  27.689  0.420E-03  0.420E-03
  27.699  0.441E-03  0.441E-03
  27.709  0.466E-03  0.466E-03
  27.719  0.495E-03  0.495E-03
  27.729  0.526E-03  0.526E-03
  27.739  0.559E-03  0.559E-03
  27.749  0.593E-03  0.593E-03
  27.759  0.627E-03  0.627E-03
  27.769  0.660E-03  0.660E-03
  27.779  0.691E-03  0.691E-03
  27.789  0.718E-03  0.718E-03
  27.799  0.741E-03  0.741E-03
  27.809  0.759E-03  0.759E-03
  27.819  0.772E-03  0.772E-03
  27.829  0.778E-03  0.778E-03
  27.839  0.777E-03  0.777E-03
  27.849  0.769E-03  0.769E-03
  27.859  0.754E-03  0.754E-03
  27.869  0.732E-03  0.732E-03
  27.879  0.704E-03  0.704E-03
  27.889  0.671E-03  0.671E-03
  27.899  0.633E-03  0.633E-03
  27.909  0.592E-03  0.592E-03
  27.919  0.548E-03  0.548E-03
  27.929  0.502E-03  0.502E-03
  27.939  0.457E-03  0.457E-03
  27.949  0.412E-03  0.412E-03
  27.959  0.368E-03  0.368E-03
  27.969  0.328E-03  0.328E-03
  27.979  0.291E-03  0.291E-03
  27.989  0.258E-03  0.258E-03
  27.999  0.230E-03  0.230E-03
  28.009  0.207E-03  0.207E-03
  28.019  0.190E-03  0.190E-03
  28.029  0.179E-03  0.179E-03
  28.039  0.174E-03  0.174E-03
  28.049  0.175E-03  0.175E-03
  28.059  0.183E-03  0.183E-03
  28.069  0.198E-03  0.198E-03
  28.079  0.220E-03  0.220E-03
  28.089  0.248E-03  0.248E-03
  28.099  0.284E-03  0.284E-03
  28.109  0.325E-03  0.325E-03
  28.119  0.373E-03  0.373E-03
  28.129  0.426E-03  0.426E-03
  28.139  0.484E-03  0.484E-03
  28.149  0.546E-03  0.546E-03
  28.159  0.610E-03  0.610E-03
  28.169  0.677E-03  0.677E-03
  28.179  0.743E-03  0.743E-03
  28.189  0.808E-03  0.808E-03
  28.199  0.871E-03  0.871E-03
  28.209  0.929E-03  0.929E-03
  28.219  0.981E-03  0.981E-03
  28.229  0.103E-02  0.103E-02
  28.239  0.106E-02  0.106E-02
  28.249  0.109E-02  0.109E-02
  28.259  0.111E-02  0.111E-02
  28.269  0.111E-02  0.111E-02
  28.279  0.111E-02  0.111E-02
  28.289  0.110E-02  0.110E-02
  28.299  0.107E-02  0.107E-02
  28.309  0.104E-02  0.104E-02
  28.319  0.100E-02  0.100E-02
  28.329  0.958E-03  0.958E-03
  28.339  0.909E-03  0.909E-03
  28.349  0.857E-03  0.857E-03
  28.359  0.803E-03  0.803E-03
  28.369  0.749E-03  0.749E-03
  28.379  0.695E-03  0.695E-03
  28.389  0.643E-03  0.643E-03
  28.399  0.593E-03  0.593E-03
  28.409  0.546E-03  0.546E-03
  28.419  0.503E-03  0.503E-03
  28.429  0.463E-03  0.463E-03
  28.439  0.428E-03  0.428E-03
  28.449  0.397E-03  0.397E-03
  28.459  0.370E-03  0.370E-03
  28.469  0.346E-03  0.346E-03
  28.479  0.327E-03  0.327E-03
  28.489  0.311E-03  0.311E-03
  28.499  0.298E-03  0.298E-03
  28.509  0.288E-03  0.288E-03
  28.519  0.281E-03  0.281E-03
  28.529  0.277E-03  0.277E-03
  28.539  0.274E-03  0.274E-03
  28.549  0.273E-03  0.273E-03
  28.559  0.273E-03  0.273E-03
  28.569  0.274E-03  0.274E-03
  28.579  0.275E-03  0.275E-03
  28.589  0.276E-03  0.276E-03
  28.599  0.277E-03  0.277E-03
  28.609  0.277E-03  0.277E-03
  28.619  0.276E-03  0.276E-03
  28.629  0.274E-03  0.274E-03
  28.639  0.271E-03  0.271E-03
  28.649  0.267E-03  0.267E-03
  28.659  0.261E-03  0.261E-03
  28.669  0.254E-03  0.254E-03
  28.679  0.246E-03  0.246E-03
  28.689  0.238E-03  0.238E-03
  28.699  0.231E-03  0.231E-03
  28.709  0.224E-03  0.224E-03
  28.719  0.217E-03  0.217E-03
  28.729  0.213E-03  0.213E-03
  28.739  0.211E-03  0.211E-03
  28.749  0.211E-03  0.211E-03
  28.759  0.215E-03  0.215E-03
  28.769  0.222E-03  0.222E-03
  28.779  0.232E-03  0.232E-03
  28.789  0.247E-03  0.247E-03
  28.799  0.264E-03  0.264E-03
  28.809  0.286E-03  0.286E-03
  28.819  0.310E-03  0.310E-03
  28.829  0.337E-03  0.337E-03
  28.839  0.366E-03  0.366E-03
  28.849  0.396E-03  0.396E-03
  28.859  0.428E-03  0.428E-03
  28.869  0.459E-03  0.459E-03
  28.879  0.489E-03  0.489E-03
  28.889  0.517E-03  0.517E-03
  28.899  0.543E-03  0.543E-03
  28.909  0.566E-03  0.566E-03
  28.919  0.585E-03  0.585E-03
  28.929  0.599E-03  0.599E-03
  28.939  0.609E-03  0.609E-03
  28.949  0.614E-03  0.614E-03
  28.959  0.615E-03  0.615E-03
  28.969  0.610E-03  0.610E-03
  28.979  0.600E-03  0.600E-03
  28.989  0.586E-03  0.586E-03
  28.999  0.568E-03  0.568E-03
  29.009  0.547E-03  0.547E-03
  29.019  0.523E-03  0.523E-03
  29.029  0.497E-03  0.497E-03
  29.039  0.469E-03  0.469E-03
  29.049  0.440E-03  0.440E-03
  29.059  0.411E-03  0.411E-03
  29.069  0.383E-03  0.383E-03
  29.079  0.356E-03  0.356E-03
  29.089  0.331E-03  0.331E-03
  29.099  0.308E-03  0.308E-03
  29.109  0.289E-03  0.289E-03
  29.119  0.273E-03  0.273E-03
  29.129  0.261E-03  0.261E-03
  29.139  0.253E-03  0.253E-03
  29.149  0.250E-03  0.250E-03
  29.159  0.253E-03  0.253E-03
  29.169  0.261E-03  0.261E-03
  29.179  0.274E-03  0.274E-03
  29.189  0.294E-03  0.294E-03
  29.199  0.320E-03  0.320E-03
  29.209  0.351E-03  0.351E-03
  29.219  0.388E-03  0.388E-03
  29.229  0.431E-03  0.431E-03
  29.239  0.479E-03  0.479E-03
  29.249  0.531E-03  0.531E-03
  29.259  0.587E-03  0.587E-03
  29.269  0.646E-03  0.646E-03
  29.279  0.707E-03  0.707E-03
  29.289  0.768E-03  0.768E-03
  29.299  0.828E-03  0.828E-03
  29.309  0.887E-03  0.887E-03
  29.319  0.942E-03  0.942E-03
  29.329  0.993E-03  0.993E-03
  29.339  0.104E-02  0.104E-02
  29.349  0.107E-02  0.107E-02
  29.359  0.110E-02  0.110E-02
  29.369  0.112E-02  0.112E-02
  29.379  0.114E-02  0.114E-02
  29.389  0.114E-02  0.114E-02
  29.399  0.113E-02  0.113E-02
  29.409  0.111E-02  0.111E-02
  29.419  0.109E-02  0.109E-02
  29.429  0.105E-02  0.105E-02
  29.439  0.101E-02  0.101E-02
  29.449  0.964E-03  0.964E-03
  29.459  0.913E-03  0.913E-03
  29.469  0.859E-03  0.859E-03
  29.479  0.803E-03  0.803E-03
  29.489  0.747E-03  0.747E-03
  29.499  0.692E-03  0.692E-03
  29.509  0.639E-03  0.639E-03
  29.519  0.589E-03  0.589E-03
  29.529  0.542E-03  0.542E-03
  29.539  0.499E-03  0.499E-03
  29.549  0.461E-03  0.461E-03
  29.559  0.427E-03  0.427E-03
  29.569  0.397E-03  0.397E-03
  29.579  0.371E-03  0.371E-03
  29.589  0.349E-03  0.349E-03
  29.599  0.330E-03  0.330E-03
  29.609  0.313E-03  0.313E-03
  29.619  0.298E-03  0.298E-03
  29.629  0.284E-03  0.284E-03
  29.639  0.272E-03  0.272E-03
  29.649  0.260E-03  0.260E-03
  29.659  0.248E-03  0.248E-03
  29.669  0.235E-03  0.235E-03
  29.679  0.223E-03  0.223E-03
  29.689  0.210E-03  0.210E-03
  29.699  0.196E-03  0.196E-03
  29.709  0.183E-03  0.183E-03
  29.719  0.168E-03  0.168E-03
  29.729  0.154E-03  0.154E-03
  29.739  0.140E-03  0.140E-03
  29.749  0.126E-03  0.126E-03
  29.759  0.112E-03  0.112E-03
  29.769  0.992E-04  0.992E-04
  29.779  0.869E-04  0.869E-04
  29.789  0.754E-04  0.754E-04
  29.799  0.647E-04  0.647E-04
  29.809  0.551E-04  0.551E-04
  29.819  0.464E-04  0.464E-04
  29.829  0.387E-04  0.387E-04
  29.839  0.320E-04  0.320E-04
  29.849  0.262E-04  0.262E-04
  29.859  0.212E-04  0.212E-04
  29.869  0.170E-04  0.170E-04
  29.879  0.135E-04  0.135E-04
  29.889  0.107E-04  0.107E-04
  29.899  0.832E-05  0.832E-05
  29.909  0.645E-05  0.645E-05
  29.919  0.497E-05  0.497E-05
  29.929  0.382E-05  0.382E-05
  29.939  0.295E-05  0.295E-05
  29.949  0.232E-05  0.232E-05
  29.959  0.189E-05  0.189E-05
  29.969  0.164E-05  0.164E-05
  29.979  0.155E-05  0.155E-05
  29.989  0.161E-05  0.161E-05
  29.999  0.182E-05  0.182E-05
  30.009  0.219E-05  0.219E-05
  30.019  0.273E-05  0.273E-05
  30.029  0.347E-05  0.347E-05
  30.039  0.443E-05  0.443E-05
  30.049  0.564E-05  0.564E-05
  30.059  0.713E-05  0.713E-05
  30.069  0.894E-05  0.894E-05
  30.079  0.111E-04  0.111E-04
  30.089  0.137E-04  0.137E-04
  30.099  0.166E-04  0.166E-04
  30.109  0.200E-04  0.200E-04
  30.119  0.239E-04  0.239E-04
  30.129  0.282E-04  0.282E-04
  30.139  0.328E-04  0.328E-04
  30.149  0.379E-04  0.379E-04
  30.159  0.432E-04  0.432E-04
  30.169  0.488E-04  0.488E-04
  30.179  0.545E-04  0.545E-04
  30.189  0.603E-04  0.603E-04
  30.199  0.659E-04  0.659E-04
  30.209  0.712E-04  0.712E-04
  30.219  0.762E-04  0.762E-04
  30.229  0.806E-04  0.806E-04
  30.239  0.844E-04  0.844E-04
  30.249  0.874E-04  0.874E-04
  30.259  0.895E-04  0.895E-04
  30.269  0.907E-04  0.907E-04
  30.279  0.910E-04  0.910E-04
  30.289  0.902E-04  0.902E-04
  30.299  0.885E-04  0.885E-04
  30.309  0.859E-04  0.859E-04
  30.319  0.825E-04  0.825E-04
  30.329  0.783E-04  0.783E-04
  30.339  0.736E-04  0.736E-04
  30.349  0.684E-04  0.684E-04
  30.359  0.629E-04  0.629E-04
  30.369  0.572E-04  0.572E-04
  30.379  0.515E-04  0.515E-04
  30.389  0.458E-04  0.458E-04
  30.399  0.404E-04  0.404E-04
  30.409  0.352E-04  0.352E-04
  30.419  0.303E-04  0.303E-04
  30.429  0.258E-04  0.258E-04
  30.439  0.218E-04  0.218E-04
  30.449  0.182E-04  0.182E-04
  30.459  0.150E-04  0.150E-04
  30.469  0.123E-04  0.123E-04
  30.479  0.993E-05  0.993E-05
  30.489  0.795E-05  0.795E-05
  30.499  0.631E-05  0.631E-05
  30.509  0.496E-05  0.496E-05
  30.519  0.388E-05  0.388E-05
  30.529  0.302E-05  0.302E-05
  30.539  0.236E-05  0.236E-05
  30.549  0.186E-05  0.186E-05
  30.559  0.149E-05  0.149E-05
  30.569  0.124E-05  0.124E-05
  30.579  0.108E-05  0.108E-05
  30.589  0.991E-06  0.991E-06
  30.599  0.970E-06  0.970E-06
  30.609  0.100E-05  0.100E-05
  30.619  0.108E-05  0.108E-05
  30.629  0.119E-05  0.119E-05
  30.639  0.133E-05  0.133E-05
  30.649  0.150E-05  0.150E-05
  30.659  0.168E-05  0.168E-05
  30.669  0.188E-05  0.188E-05
  30.679  0.209E-05  0.209E-05
  30.689  0.229E-05  0.229E-05
  30.699  0.250E-05  0.250E-05
  30.709  0.269E-05  0.269E-05
  30.719  0.288E-05  0.288E-05
  30.729  0.304E-05  0.304E-05
  30.739  0.317E-05  0.317E-05
  30.749  0.328E-05  0.328E-05
  30.759  0.336E-05  0.336E-05
  30.769  0.341E-05  0.341E-05
  30.779  0.342E-05  0.342E-05
  30.789  0.340E-05  0.340E-05
  30.799  0.336E-05  0.336E-05
  30.809  0.329E-05  0.329E-05
  30.819  0.321E-05  0.321E-05
  30.829  0.312E-05  0.312E-05
  30.839  0.304E-05  0.304E-05
  30.849  0.299E-05  0.299E-05
  30.859  0.298E-05  0.298E-05
  30.869  0.304E-05  0.304E-05
  30.879  0.319E-05  0.319E-05
  30.889  0.347E-05  0.347E-05
  30.899  0.390E-05  0.390E-05
  30.909  0.454E-05  0.454E-05
  30.919  0.543E-05  0.543E-05
  30.929  0.662E-05  0.662E-05
  30.939  0.816E-05  0.816E-05
  30.949  0.101E-04  0.101E-04
  30.959  0.126E-04  0.126E-04
  30.969  0.155E-04  0.155E-04
  30.979  0.191E-04  0.191E-04
  30.989  0.234E-04  0.234E-04
  30.999  0.283E-04  0.283E-04
  31.009  0.340E-04  0.340E-04
  31.019  0.404E-04  0.404E-04
  31.029  0.475E-04  0.475E-04
  31.039  0.553E-04  0.553E-04
  31.049  0.636E-04  0.636E-04
  31.059  0.725E-04  0.725E-04
  31.069  0.818E-04  0.818E-04
  31.079  0.912E-04  0.912E-04
  31.089  0.101E-03  0.101E-03
  31.099  0.110E-03  0.110E-03
  31.109  0.119E-03  0.119E-03
  31.119  0.127E-03  0.127E-03
  31.129  0.134E-03  0.134E-03
  31.139  0.140E-03  0.140E-03
  31.149  0.145E-03  0.145E-03
  31.159  0.148E-03  0.148E-03
  31.169  0.150E-03  0.150E-03
  31.179  0.150E-03  0.150E-03
  31.189  0.149E-03  0.149E-03
  31.199  0.146E-03  0.146E-03
  31.209  0.142E-03  0.142E-03
  31.219  0.136E-03  0.136E-03
  31.229  0.129E-03  0.129E-03
  31.239  0.121E-03  0.121E-03
  31.249  0.112E-03  0.112E-03
  31.259  0.103E-03  0.103E-03
  31.269  0.937E-04  0.937E-04
  31.279  0.842E-04  0.842E-04
  31.289  0.749E-04  0.749E-04
  31.299  0.659E-04  0.659E-04
  31.309  0.573E-04  0.573E-04
  31.319  0.493E-04  0.493E-04
  31.329  0.420E-04  0.420E-04
  31.339  0.354E-04  0.354E-04
  31.349  0.295E-04  0.295E-04
  31.359  0.243E-04  0.243E-04
  31.369  0.198E-04  0.198E-04
  31.379  0.160E-04  0.160E-04
  31.389  0.128E-04  0.128E-04
  31.399  0.101E-04  0.101E-04
  31.409  0.788E-05  0.788E-05
  31.419  0.609E-05  0.609E-05
  31.429  0.465E-05  0.465E-05
  31.439  0.352E-05  0.352E-05
  31.449  0.263E-05  0.263E-05
  31.459  0.195E-05  0.195E-05
  31.469  0.143E-05  0.143E-05
  31.479  0.103E-05  0.103E-05
  31.489  0.739E-06  0.739E-06
  31.499  0.524E-06  0.524E-06
  31.509  0.367E-06  0.367E-06
  31.519  0.255E-06  0.255E-06
  31.529  0.175E-06  0.175E-06
  31.539  0.119E-06  0.119E-06
  31.549  0.797E-07  0.797E-07
  31.559  0.529E-07  0.529E-07
  31.569  0.348E-07  0.348E-07
  31.579  0.226E-07  0.226E-07
  31.589  0.145E-07  0.145E-07
