# E (eV)   ldos(E)   pdos(E)   
  -5.898  0.409E-04  0.409E-04
  -5.888  0.639E-04  0.639E-04
  -5.878  0.987E-04  0.987E-04
  -5.868  0.151E-03  0.151E-03
  -5.858  0.228E-03  0.228E-03
  -5.848  0.342E-03  0.342E-03
  -5.838  0.506E-03  0.506E-03
  -5.828  0.742E-03  0.742E-03
  -5.818  0.108E-02  0.108E-02
  -5.808  0.154E-02  0.154E-02
  -5.798  0.219E-02  0.219E-02
  -5.788  0.308E-02  0.308E-02
  -5.778  0.429E-02  0.429E-02
  -5.768  0.590E-02  0.590E-02
  -5.758  0.804E-02  0.804E-02
  -5.748  0.108E-01  0.108E-01
  -5.738  0.145E-01  0.145E-01
  -5.728  0.191E-01  0.191E-01
  -5.718  0.250E-01  0.250E-01
  -5.708  0.323E-01  0.323E-01
  -5.698  0.414E-01  0.414E-01
  -5.688  0.524E-01  0.524E-01
  -5.678  0.658E-01  0.658E-01
  -5.668  0.817E-01  0.817E-01
  -5.658  0.101E+00  0.101E+00
  -5.648  0.122E+00  0.122E+00
  -5.638  0.147E+00  0.147E+00
  -5.628  0.176E+00  0.176E+00
  -5.618  0.208E+00  0.208E+00
  -5.608  0.243E+00  0.243E+00
  -5.598  0.282E+00  0.282E+00
  -5.588  0.324E+00  0.324E+00
  -5.578  0.368E+00  0.368E+00
  -5.568  0.415E+00  0.415E+00
  -5.558  0.463E+00  0.463E+00
  -5.548  0.511E+00  0.511E+00
  -5.538  0.560E+00  0.560E+00
  -5.528  0.608E+00  0.608E+00
  -5.518  0.655E+00  0.655E+00
  -5.508  0.699E+00  0.699E+00
  -5.498  0.739E+00  0.739E+00
  -5.488  0.776E+00  0.776E+00
  -5.478  0.808E+00  0.808E+00
  -5.468  0.835E+00  0.835E+00
  -5.458  0.856E+00  0.856E+00
  -5.448  0.872E+00  0.872E+00
  -5.438  0.882E+00  0.882E+00
  -5.428  0.886E+00  0.886E+00
  -5.418  0.885E+00  0.885E+00
  -5.408  0.879E+00  0.879E+00
  -5.398  0.869E+00  0.869E+00
  -5.388  0.855E+00  0.855E+00
  -5.378  0.837E+00  0.837E+00
  -5.368  0.817E+00  0.817E+00
  -5.358  0.794E+00  0.794E+00
  -5.348  0.770E+00  0.770E+00
  -5.338  0.746E+00  0.746E+00
  -5.328  0.721E+00  0.721E+00
  -5.318  0.696E+00  0.696E+00
  -5.308  0.671E+00  0.671E+00
  -5.298  0.647E+00  0.647E+00
  -5.288  0.624E+00  0.624E+00
  -5.278  0.602E+00  0.602E+00
  -5.268  0.581E+00  0.581E+00
  -5.258  0.562E+00  0.562E+00
  -5.248  0.543E+00  0.543E+00
  -5.238  0.526E+00  0.526E+00
  -5.228  0.510E+00  0.510E+00
  -5.218  0.496E+00  0.496E+00
  -5.208  0.482E+00  0.482E+00
  -5.198  0.469E+00  0.469E+00
  -5.188  0.458E+00  0.458E+00
  -5.178  0.447E+00  0.447E+00
  -5.168  0.436E+00  0.436E+00
  -5.158  0.427E+00  0.427E+00
  -5.148  0.418E+00  0.418E+00
  -5.138  0.409E+00  0.409E+00
  -5.128  0.401E+00  0.401E+00
  -5.118  0.394E+00  0.394E+00
  -5.108  0.387E+00  0.387E+00
  -5.098  0.380E+00  0.380E+00
  -5.088  0.373E+00  0.373E+00
  -5.078  0.367E+00  0.367E+00
  -5.068  0.361E+00  0.361E+00
  -5.058  0.356E+00  0.356E+00
  -5.048  0.350E+00  0.350E+00
  -5.038  0.345E+00  0.345E+00
  -5.028  0.340E+00  0.340E+00
  -5.018  0.336E+00  0.336E+00
  -5.008  0.331E+00  0.331E+00
  -4.998  0.327E+00  0.327E+00
  -4.988  0.322E+00  0.322E+00
  -4.978  0.318E+00  0.318E+00
  -4.968  0.314E+00  0.314E+00
  -4.958  0.311E+00  0.311E+00
  -4.948  0.307E+00  0.307E+00
  -4.938  0.303E+00  0.303E+00
  -4.928  0.300E+00  0.300E+00
  -4.918  0.297E+00  0.297E+00
  -4.908  0.293E+00  0.293E+00
  -4.898  0.290E+00  0.290E+00
  -4.888  0.287E+00  0.287E+00
  -4.878  0.284E+00  0.284E+00
  -4.868  0.281E+00  0.281E+00
  -4.858  0.279E+00  0.279E+00
  -4.848  0.276E+00  0.276E+00
  -4.838  0.273E+00  0.273E+00
  -4.828  0.271E+00  0.271E+00
  -4.818  0.268E+00  0.268E+00
  -4.808  0.266E+00  0.266E+00
  -4.798  0.263E+00  0.263E+00
  -4.788  0.261E+00  0.261E+00
  -4.778  0.259E+00  0.259E+00
  -4.768  0.257E+00  0.257E+00
  -4.758  0.255E+00  0.255E+00
  -4.748  0.253E+00  0.253E+00
  -4.738  0.251E+00  0.251E+00
  -4.728  0.249E+00  0.249E+00
  -4.718  0.247E+00  0.247E+00
  -4.708  0.245E+00  0.245E+00
  -4.698  0.243E+00  0.243E+00
  -4.688  0.241E+00  0.241E+00
  -4.678  0.239E+00  0.239E+00
  -4.668  0.238E+00  0.238E+00
  -4.658  0.236E+00  0.236E+00
  -4.648  0.235E+00  0.235E+00
  -4.638  0.233E+00  0.233E+00
  -4.628  0.231E+00  0.231E+00
  -4.618  0.230E+00  0.230E+00
  -4.608  0.228E+00  0.228E+00
  -4.598  0.227E+00  0.227E+00
  -4.588  0.226E+00  0.226E+00
  -4.578  0.224E+00  0.224E+00
  -4.568  0.223E+00  0.223E+00
  -4.558  0.222E+00  0.222E+00
  -4.548  0.220E+00  0.220E+00
  -4.538  0.219E+00  0.219E+00
  -4.528  0.218E+00  0.218E+00
  -4.518  0.217E+00  0.217E+00
  -4.508  0.215E+00  0.215E+00
  -4.498  0.214E+00  0.214E+00
  -4.488  0.213E+00  0.213E+00
  -4.478  0.212E+00  0.212E+00
  -4.468  0.211E+00  0.211E+00
  -4.458  0.210E+00  0.210E+00
  -4.448  0.209E+00  0.209E+00
  -4.438  0.208E+00  0.208E+00
  -4.428  0.207E+00  0.207E+00
  -4.418  0.206E+00  0.206E+00
  -4.408  0.205E+00  0.205E+00
  -4.398  0.204E+00  0.204E+00
  -4.388  0.203E+00  0.203E+00
  -4.378  0.203E+00  0.203E+00
  -4.368  0.202E+00  0.202E+00
  -4.358  0.201E+00  0.201E+00
  -4.348  0.200E+00  0.200E+00
  -4.338  0.199E+00  0.199E+00
  -4.328  0.199E+00  0.199E+00
  -4.318  0.198E+00  0.198E+00
  -4.308  0.197E+00  0.197E+00
  -4.298  0.196E+00  0.196E+00
  -4.288  0.196E+00  0.196E+00
  -4.278  0.195E+00  0.195E+00
  -4.268  0.194E+00  0.194E+00
  -4.258  0.194E+00  0.194E+00
  -4.248  0.193E+00  0.193E+00
  -4.238  0.193E+00  0.193E+00
  -4.228  0.192E+00  0.192E+00
  -4.218  0.191E+00  0.191E+00
  -4.208  0.191E+00  0.191E+00
  -4.198  0.190E+00  0.190E+00
  -4.188  0.190E+00  0.190E+00
  -4.178  0.189E+00  0.189E+00
  -4.168  0.189E+00  0.189E+00
  -4.158  0.188E+00  0.188E+00
  -4.148  0.188E+00  0.188E+00
  -4.138  0.187E+00  0.187E+00
  -4.128  0.187E+00  0.187E+00
  -4.118  0.187E+00  0.187E+00
  -4.108  0.186E+00  0.186E+00
  -4.098  0.186E+00  0.186E+00
  -4.088  0.186E+00  0.186E+00
  -4.078  0.185E+00  0.185E+00
  -4.068  0.185E+00  0.185E+00
  -4.058  0.185E+00  0.185E+00
  -4.048  0.184E+00  0.184E+00
  -4.038  0.184E+00  0.184E+00
  -4.028  0.184E+00  0.184E+00
  -4.018  0.184E+00  0.184E+00
  -4.008  0.183E+00  0.183E+00
  -3.998  0.183E+00  0.183E+00
  -3.988  0.183E+00  0.183E+00
  -3.978  0.183E+00  0.183E+00
  -3.968  0.183E+00  0.183E+00
  -3.958  0.183E+00  0.183E+00
  -3.948  0.183E+00  0.183E+00
  -3.938  0.182E+00  0.182E+00
  -3.928  0.182E+00  0.182E+00
  -3.918  0.182E+00  0.182E+00
  -3.908  0.182E+00  0.182E+00
  -3.898  0.182E+00  0.182E+00
  -3.888  0.182E+00  0.182E+00
  -3.878  0.182E+00  0.182E+00
  -3.868  0.182E+00  0.182E+00
  -3.858  0.182E+00  0.182E+00
  -3.848  0.183E+00  0.183E+00
  -3.838  0.183E+00  0.183E+00
  -3.828  0.183E+00  0.183E+00
  -3.818  0.183E+00  0.183E+00
  -3.808  0.183E+00  0.183E+00
  -3.798  0.183E+00  0.183E+00
  -3.788  0.184E+00  0.184E+00
  -3.778  0.184E+00  0.184E+00
  -3.768  0.184E+00  0.184E+00
  -3.758  0.185E+00  0.185E+00
  -3.748  0.185E+00  0.185E+00
  -3.738  0.185E+00  0.185E+00
  -3.728  0.186E+00  0.186E+00
  -3.718  0.186E+00  0.186E+00
  -3.708  0.187E+00  0.187E+00
  -3.698  0.187E+00  0.187E+00
  -3.688  0.188E+00  0.188E+00
  -3.678  0.188E+00  0.188E+00
  -3.668  0.189E+00  0.189E+00
  -3.658  0.190E+00  0.190E+00
  -3.648  0.190E+00  0.190E+00
  -3.638  0.191E+00  0.191E+00
  -3.628  0.192E+00  0.192E+00
  -3.618  0.193E+00  0.193E+00
  -3.608  0.194E+00  0.194E+00
  -3.598  0.195E+00  0.195E+00
  -3.588  0.196E+00  0.196E+00
  -3.578  0.197E+00  0.197E+00
  -3.568  0.198E+00  0.198E+00
  -3.558  0.199E+00  0.199E+00
  -3.548  0.201E+00  0.201E+00
  -3.538  0.202E+00  0.202E+00
  -3.528  0.204E+00  0.204E+00
  -3.518  0.206E+00  0.206E+00
  -3.508  0.207E+00  0.207E+00
  -3.498  0.209E+00  0.209E+00
  -3.488  0.212E+00  0.212E+00
  -3.478  0.214E+00  0.214E+00
  -3.468  0.216E+00  0.216E+00
  -3.458  0.219E+00  0.219E+00
  -3.448  0.222E+00  0.222E+00
  -3.438  0.225E+00  0.225E+00
  -3.428  0.229E+00  0.229E+00
  -3.418  0.232E+00  0.232E+00
  -3.408  0.237E+00  0.237E+00
  -3.398  0.241E+00  0.241E+00
  -3.388  0.246E+00  0.246E+00
  -3.378  0.251E+00  0.251E+00
  -3.368  0.257E+00  0.257E+00
  -3.358  0.264E+00  0.264E+00
  -3.348  0.270E+00  0.270E+00
  -3.338  0.278E+00  0.278E+00
  -3.328  0.285E+00  0.285E+00
  -3.318  0.293E+00  0.293E+00
  -3.308  0.301E+00  0.301E+00
  -3.298  0.310E+00  0.310E+00
  -3.288  0.318E+00  0.318E+00
  -3.278  0.326E+00  0.326E+00
  -3.268  0.334E+00  0.334E+00
  -3.258  0.341E+00  0.341E+00
  -3.248  0.348E+00  0.348E+00
  -3.238  0.353E+00  0.353E+00
  -3.228  0.357E+00  0.357E+00
  -3.218  0.360E+00  0.360E+00
  -3.208  0.361E+00  0.361E+00
  -3.198  0.360E+00  0.360E+00
  -3.188  0.357E+00  0.357E+00
  -3.178  0.351E+00  0.351E+00
  -3.168  0.344E+00  0.344E+00
  -3.158  0.334E+00  0.334E+00
  -3.148  0.323E+00  0.323E+00
  -3.138  0.309E+00  0.309E+00
  -3.128  0.294E+00  0.294E+00
  -3.118  0.277E+00  0.277E+00
  -3.108  0.259E+00  0.259E+00
  -3.098  0.240E+00  0.240E+00
  -3.088  0.221E+00  0.221E+00
  -3.078  0.201E+00  0.201E+00
  -3.068  0.181E+00  0.181E+00
  -3.058  0.162E+00  0.162E+00
  -3.048  0.144E+00  0.144E+00
  -3.038  0.126E+00  0.126E+00
  -3.028  0.110E+00  0.110E+00
  -3.018  0.945E-01  0.945E-01
  -3.008  0.806E-01  0.806E-01
  -2.998  0.681E-01  0.681E-01
  -2.988  0.569E-01  0.569E-01
  -2.978  0.472E-01  0.472E-01
  -2.968  0.387E-01  0.387E-01
  -2.958  0.314E-01  0.314E-01
  -2.948  0.252E-01  0.252E-01
  -2.938  0.201E-01  0.201E-01
  -2.928  0.158E-01  0.158E-01
  -2.918  0.123E-01  0.123E-01
  -2.908  0.950E-02  0.950E-02
  -2.898  0.725E-02  0.725E-02
  -2.888  0.548E-02  0.548E-02
  -2.878  0.410E-02  0.410E-02
  -2.868  0.304E-02  0.304E-02
  -2.858  0.222E-02  0.222E-02
  -2.848  0.161E-02  0.161E-02
  -2.838  0.116E-02  0.116E-02
  -2.828  0.822E-03  0.822E-03
  -2.818  0.578E-03  0.578E-03
  -2.808  0.402E-03  0.402E-03
  -2.798  0.276E-03  0.276E-03
  -2.788  0.188E-03  0.188E-03
  -2.778  0.127E-03  0.127E-03
  -2.768  0.846E-04  0.846E-04
  -2.758  0.558E-04  0.558E-04
  -2.748  0.364E-04  0.364E-04
  -2.738  0.235E-04  0.235E-04
  -2.728  0.150E-04  0.150E-04
  -2.718  0.951E-05  0.951E-05
  -2.708  0.595E-05  0.595E-05
  -2.698  0.368E-05  0.368E-05
  -2.688  0.226E-05  0.226E-05
  -2.678  0.137E-05  0.137E-05
  -2.668  0.820E-06  0.820E-06
  -2.658  0.487E-06  0.487E-06
  -2.648  0.286E-06  0.286E-06
  -2.638  0.166E-06  0.166E-06
  -2.628  0.954E-07  0.954E-07
  -2.618  0.543E-07  0.543E-07
  -2.608  0.305E-07  0.305E-07
  -2.598  0.170E-07  0.170E-07
  -2.588  0.936E-08  0.936E-08
  -2.578  0.510E-08  0.510E-08
  -2.568  0.275E-08  0.275E-08
  -2.558  0.147E-08  0.147E-08
  -2.548  0.774E-09  0.774E-09
  -2.538  0.404E-09  0.404E-09
  -2.528  0.208E-09  0.208E-09
  -2.518  0.107E-09  0.107E-09
  -2.508  0.539E-10  0.539E-10
  -2.498  0.269E-10  0.269E-10
  -2.488  0.132E-10  0.132E-10
  -2.478  0.646E-11  0.646E-11
  -2.468  0.284E-11  0.284E-11
  -2.458  0.137E-11  0.137E-11
  -2.448  0.398E-12  0.398E-12
  -2.438  0.000E+00  0.000E+00
  -2.428  0.000E+00  0.000E+00
  -2.418  0.000E+00  0.000E+00
  -2.408  0.000E+00  0.000E+00
  -2.398  0.000E+00  0.000E+00
  -2.388  0.000E+00  0.000E+00
  -2.378  0.000E+00  0.000E+00
  -2.368  0.000E+00  0.000E+00
  -2.358  0.000E+00  0.000E+00
  -2.348  0.000E+00  0.000E+00
  -2.338  0.000E+00  0.000E+00
  -2.328  0.000E+00  0.000E+00
  -2.318  0.000E+00  0.000E+00
  -2.308  0.000E+00  0.000E+00
  -2.298  0.000E+00  0.000E+00
  -2.288  0.000E+00  0.000E+00
  -2.278  0.000E+00  0.000E+00
  -2.268  0.000E+00  0.000E+00
  -2.258  0.000E+00  0.000E+00
  -2.248  0.000E+00  0.000E+00
  -2.238  0.000E+00  0.000E+00
  -2.228  0.000E+00  0.000E+00
  -2.218  0.000E+00  0.000E+00
  -2.208  0.000E+00  0.000E+00
  -2.198  0.000E+00  0.000E+00
  -2.188  0.000E+00  0.000E+00
  -2.178  0.000E+00  0.000E+00
  -2.168  0.000E+00  0.000E+00
  -2.158  0.000E+00  0.000E+00
  -2.148  0.000E+00  0.000E+00
  -2.138  0.000E+00  0.000E+00
  -2.128  0.000E+00  0.000E+00
  -2.118  0.000E+00  0.000E+00
  -2.108  0.000E+00  0.000E+00
  -2.098  0.000E+00  0.000E+00
  -2.088  0.000E+00  0.000E+00
  -2.078  0.000E+00  0.000E+00
  -2.068  0.000E+00  0.000E+00
  -2.058  0.000E+00  0.000E+00
  -2.048  0.000E+00  0.000E+00
  -2.038  0.000E+00  0.000E+00
  -2.028  0.000E+00  0.000E+00
  -2.018  0.000E+00  0.000E+00
  -2.008  0.000E+00  0.000E+00
  -1.998  0.000E+00  0.000E+00
  -1.988  0.000E+00  0.000E+00
  -1.978  0.000E+00  0.000E+00
  -1.968  0.000E+00  0.000E+00
  -1.958  0.000E+00  0.000E+00
  -1.948  0.000E+00  0.000E+00
  -1.938  0.000E+00  0.000E+00
  -1.928  0.000E+00  0.000E+00
  -1.918  0.000E+00  0.000E+00
  -1.908  0.000E+00  0.000E+00
  -1.898  0.000E+00  0.000E+00
  -1.888  0.000E+00  0.000E+00
  -1.878  0.000E+00  0.000E+00
  -1.868  0.000E+00  0.000E+00
  -1.858  0.000E+00  0.000E+00
  -1.848  0.000E+00  0.000E+00
  -1.838  0.000E+00  0.000E+00
  -1.828  0.000E+00  0.000E+00
  -1.818  0.000E+00  0.000E+00
  -1.808  0.000E+00  0.000E+00
  -1.798  0.000E+00  0.000E+00
  -1.788  0.000E+00  0.000E+00
  -1.778  0.000E+00  0.000E+00
  -1.768  0.000E+00  0.000E+00
  -1.758  0.000E+00  0.000E+00
  -1.748  0.000E+00  0.000E+00
  -1.738  0.000E+00  0.000E+00
  -1.728  0.000E+00  0.000E+00
  -1.718  0.000E+00  0.000E+00
  -1.708  0.000E+00  0.000E+00
  -1.698  0.000E+00  0.000E+00
  -1.688  0.000E+00  0.000E+00
  -1.678  0.000E+00  0.000E+00
  -1.668  0.000E+00  0.000E+00
  -1.658  0.000E+00  0.000E+00
  -1.648  0.000E+00  0.000E+00
  -1.638  0.000E+00  0.000E+00
  -1.628  0.000E+00  0.000E+00
  -1.618  0.000E+00  0.000E+00
  -1.608  0.000E+00  0.000E+00
  -1.598  0.000E+00  0.000E+00
  -1.588  0.000E+00  0.000E+00
  -1.578  0.000E+00  0.000E+00
  -1.568  0.000E+00  0.000E+00
  -1.558  0.000E+00  0.000E+00
  -1.548  0.000E+00  0.000E+00
  -1.538  0.000E+00  0.000E+00
  -1.528  0.000E+00  0.000E+00
  -1.518  0.000E+00  0.000E+00
  -1.508  0.000E+00  0.000E+00
  -1.498  0.000E+00  0.000E+00
  -1.488  0.000E+00  0.000E+00
  -1.478  0.000E+00  0.000E+00
  -1.468  0.000E+00  0.000E+00
  -1.458  0.000E+00  0.000E+00
  -1.448  0.000E+00  0.000E+00
  -1.438  0.000E+00  0.000E+00
  -1.428  0.000E+00  0.000E+00
  -1.418  0.000E+00  0.000E+00
  -1.408  0.000E+00  0.000E+00
  -1.398  0.000E+00  0.000E+00
  -1.388  0.000E+00  0.000E+00
  -1.378  0.000E+00  0.000E+00
  -1.368  0.000E+00  0.000E+00
  -1.358  0.000E+00  0.000E+00
  -1.348  0.000E+00  0.000E+00
  -1.338  0.000E+00  0.000E+00
  -1.328  0.000E+00  0.000E+00
  -1.318  0.000E+00  0.000E+00
  -1.308  0.000E+00  0.000E+00
  -1.298  0.000E+00  0.000E+00
  -1.288  0.000E+00  0.000E+00
  -1.278  0.000E+00  0.000E+00
  -1.268  0.000E+00  0.000E+00
  -1.258  0.000E+00  0.000E+00
  -1.248  0.000E+00  0.000E+00
  -1.238  0.000E+00  0.000E+00
  -1.228  0.000E+00  0.000E+00
  -1.218  0.000E+00  0.000E+00
  -1.208  0.000E+00  0.000E+00
  -1.198  0.157E-12  0.157E-12
  -1.188  0.502E-12  0.502E-12
  -1.178  0.104E-11  0.104E-11
  -1.168  0.225E-11  0.225E-11
  -1.158  0.457E-11  0.457E-11
  -1.148  0.919E-11  0.919E-11
  -1.138  0.183E-10  0.183E-10
  -1.128  0.361E-10  0.361E-10
  -1.118  0.704E-10  0.704E-10
  -1.108  0.136E-09  0.136E-09
  -1.098  0.259E-09  0.259E-09
  -1.088  0.488E-09  0.488E-09
  -1.078  0.911E-09  0.911E-09
  -1.068  0.168E-08  0.168E-08
  -1.058  0.307E-08  0.307E-08
  -1.048  0.556E-08  0.556E-08
  -1.038  0.994E-08  0.994E-08
  -1.028  0.176E-07  0.176E-07
  -1.018  0.308E-07  0.308E-07
  -1.008  0.534E-07  0.534E-07
  -0.998  0.914E-07  0.914E-07
  -0.988  0.155E-06  0.155E-06
  -0.978  0.260E-06  0.260E-06
  -0.968  0.432E-06  0.432E-06
  -0.958  0.709E-06  0.709E-06
  -0.948  0.115E-05  0.115E-05
  -0.938  0.185E-05  0.185E-05
  -0.928  0.295E-05  0.295E-05
  -0.918  0.464E-05  0.464E-05
  -0.908  0.723E-05  0.723E-05
  -0.898  0.111E-04  0.111E-04
  -0.888  0.170E-04  0.170E-04
  -0.878  0.257E-04  0.257E-04
  -0.868  0.383E-04  0.383E-04
  -0.858  0.566E-04  0.566E-04
  -0.848  0.828E-04  0.828E-04
  -0.838  0.120E-03  0.120E-03
  -0.828  0.171E-03  0.171E-03
  -0.818  0.243E-03  0.243E-03
  -0.808  0.340E-03  0.340E-03
  -0.798  0.472E-03  0.472E-03
  -0.788  0.649E-03  0.649E-03
  -0.778  0.881E-03  0.881E-03
  -0.768  0.119E-02  0.119E-02
  -0.758  0.158E-02  0.158E-02
  -0.748  0.208E-02  0.208E-02
  -0.738  0.271E-02  0.271E-02
  -0.728  0.350E-02  0.350E-02
  -0.718  0.447E-02  0.447E-02
  -0.708  0.565E-02  0.565E-02
  -0.698  0.707E-02  0.707E-02
  -0.688  0.876E-02  0.876E-02
  -0.678  0.107E-01  0.107E-01
  -0.668  0.131E-01  0.131E-01
  -0.658  0.157E-01  0.157E-01
  -0.648  0.187E-01  0.187E-01
  -0.638  0.220E-01  0.220E-01
  -0.628  0.257E-01  0.257E-01
  -0.618  0.297E-01  0.297E-01
  -0.608  0.341E-01  0.341E-01
  -0.598  0.386E-01  0.386E-01
  -0.588  0.434E-01  0.434E-01
  -0.578  0.484E-01  0.484E-01
  -0.568  0.534E-01  0.534E-01
  -0.558  0.584E-01  0.584E-01
  -0.548  0.633E-01  0.633E-01
  -0.538  0.680E-01  0.680E-01
  -0.528  0.725E-01  0.725E-01
  -0.518  0.766E-01  0.766E-01
  -0.508  0.804E-01  0.804E-01
  -0.498  0.836E-01  0.836E-01
  -0.488  0.864E-01  0.864E-01
  -0.478  0.886E-01  0.886E-01
  -0.468  0.903E-01  0.903E-01
  -0.458  0.914E-01  0.914E-01
  -0.448  0.920E-01  0.920E-01
  -0.438  0.921E-01  0.921E-01
  -0.428  0.917E-01  0.917E-01
  -0.418  0.909E-01  0.909E-01
  -0.408  0.897E-01  0.897E-01
  -0.398  0.882E-01  0.882E-01
  -0.388  0.865E-01  0.865E-01
  -0.378  0.846E-01  0.846E-01
  -0.368  0.826E-01  0.826E-01
  -0.358  0.806E-01  0.806E-01
  -0.348  0.785E-01  0.785E-01
  -0.338  0.764E-01  0.764E-01
  -0.328  0.744E-01  0.744E-01
  -0.318  0.724E-01  0.724E-01
  -0.308  0.705E-01  0.705E-01
  -0.298  0.688E-01  0.688E-01
  -0.288  0.671E-01  0.671E-01
  -0.278  0.656E-01  0.656E-01
  -0.268  0.642E-01  0.642E-01
  -0.258  0.629E-01  0.629E-01
  -0.248  0.616E-01  0.616E-01
  -0.238  0.605E-01  0.605E-01
  -0.228  0.595E-01  0.595E-01
  -0.218  0.586E-01  0.586E-01
  -0.208  0.577E-01  0.577E-01
  -0.198  0.569E-01  0.569E-01
  -0.188  0.562E-01  0.562E-01
  -0.178  0.555E-01  0.555E-01
  -0.168  0.549E-01  0.549E-01
  -0.158  0.543E-01  0.543E-01
  -0.148  0.538E-01  0.538E-01
  -0.138  0.533E-01  0.533E-01
  -0.128  0.528E-01  0.528E-01
  -0.118  0.523E-01  0.523E-01
  -0.108  0.519E-01  0.519E-01
  -0.098  0.515E-01  0.515E-01
  -0.088  0.511E-01  0.511E-01
  -0.078  0.507E-01  0.507E-01
  -0.068  0.504E-01  0.504E-01
  -0.058  0.500E-01  0.500E-01
  -0.048  0.497E-01  0.497E-01
  -0.038  0.494E-01  0.494E-01
  -0.028  0.491E-01  0.491E-01
  -0.018  0.488E-01  0.488E-01
  -0.008  0.486E-01  0.486E-01
   0.002  0.483E-01  0.483E-01
   0.012  0.480E-01  0.480E-01
   0.022  0.478E-01  0.478E-01
   0.032  0.476E-01  0.476E-01
   0.042  0.473E-01  0.473E-01
   0.052  0.471E-01  0.471E-01
   0.062  0.469E-01  0.469E-01
   0.072  0.467E-01  0.467E-01
   0.082  0.465E-01  0.465E-01
   0.092  0.463E-01  0.463E-01
   0.102  0.461E-01  0.461E-01
   0.112  0.459E-01  0.459E-01
   0.122  0.457E-01  0.457E-01
   0.132  0.455E-01  0.455E-01
   0.142  0.454E-01  0.454E-01
   0.152  0.452E-01  0.452E-01
   0.162  0.450E-01  0.450E-01
   0.172  0.449E-01  0.449E-01
   0.182  0.447E-01  0.447E-01
   0.192  0.446E-01  0.446E-01
   0.202  0.444E-01  0.444E-01
   0.212  0.443E-01  0.443E-01
   0.222  0.442E-01  0.442E-01
   0.232  0.440E-01  0.440E-01
   0.242  0.439E-01  0.439E-01
   0.252  0.437E-01  0.437E-01
   0.262  0.436E-01  0.436E-01
   0.272  0.435E-01  0.435E-01
   0.282  0.434E-01  0.434E-01
   0.292  0.433E-01  0.433E-01
   0.302  0.431E-01  0.431E-01
   0.312  0.430E-01  0.430E-01
   0.322  0.429E-01  0.429E-01
   0.332  0.428E-01  0.428E-01
   0.342  0.427E-01  0.427E-01
   0.352  0.426E-01  0.426E-01
   0.362  0.425E-01  0.425E-01
   0.372  0.424E-01  0.424E-01
   0.382  0.422E-01  0.422E-01
   0.392  0.421E-01  0.421E-01
   0.402  0.420E-01  0.420E-01
   0.412  0.419E-01  0.419E-01
   0.422  0.418E-01  0.418E-01
   0.432  0.418E-01  0.418E-01
   0.442  0.417E-01  0.417E-01
   0.452  0.416E-01  0.416E-01
   0.462  0.415E-01  0.415E-01
   0.472  0.414E-01  0.414E-01
   0.482  0.413E-01  0.413E-01
   0.492  0.412E-01  0.412E-01
   0.502  0.411E-01  0.411E-01
   0.512  0.410E-01  0.410E-01
   0.522  0.409E-01  0.409E-01
   0.532  0.409E-01  0.409E-01
   0.542  0.408E-01  0.408E-01
   0.552  0.407E-01  0.407E-01
   0.562  0.406E-01  0.406E-01
   0.572  0.405E-01  0.405E-01
   0.582  0.405E-01  0.405E-01
   0.592  0.404E-01  0.404E-01
   0.602  0.403E-01  0.403E-01
   0.612  0.402E-01  0.402E-01
   0.622  0.402E-01  0.402E-01
   0.632  0.401E-01  0.401E-01
   0.642  0.400E-01  0.400E-01
   0.652  0.399E-01  0.399E-01
   0.662  0.398E-01  0.398E-01
   0.672  0.398E-01  0.398E-01
   0.682  0.397E-01  0.397E-01
   0.692  0.396E-01  0.396E-01
   0.702  0.395E-01  0.395E-01
   0.712  0.395E-01  0.395E-01
   0.722  0.394E-01  0.394E-01
   0.732  0.394E-01  0.394E-01
   0.742  0.393E-01  0.393E-01
   0.752  0.392E-01  0.392E-01
   0.762  0.392E-01  0.392E-01
   0.772  0.391E-01  0.391E-01
   0.782  0.390E-01  0.390E-01
   0.792  0.390E-01  0.390E-01
   0.802  0.389E-01  0.389E-01
   0.812  0.388E-01  0.388E-01
   0.822  0.387E-01  0.387E-01
   0.832  0.387E-01  0.387E-01
   0.842  0.386E-01  0.386E-01
   0.852  0.385E-01  0.385E-01
   0.862  0.385E-01  0.385E-01
   0.872  0.384E-01  0.384E-01
   0.882  0.384E-01  0.384E-01
   0.892  0.383E-01  0.383E-01
   0.902  0.383E-01  0.383E-01
   0.912  0.382E-01  0.382E-01
   0.922  0.382E-01  0.382E-01
   0.932  0.381E-01  0.381E-01
   0.942  0.381E-01  0.381E-01
   0.952  0.380E-01  0.380E-01
   0.962  0.379E-01  0.379E-01
   0.972  0.378E-01  0.378E-01
   0.982  0.378E-01  0.378E-01
   0.992  0.377E-01  0.377E-01
   1.002  0.376E-01  0.376E-01
   1.012  0.376E-01  0.376E-01
   1.022  0.375E-01  0.375E-01
   1.032  0.375E-01  0.375E-01
   1.042  0.375E-01  0.375E-01
   1.052  0.374E-01  0.374E-01
   1.062  0.374E-01  0.374E-01
   1.072  0.373E-01  0.373E-01
   1.082  0.373E-01  0.373E-01
   1.092  0.372E-01  0.372E-01
   1.102  0.372E-01  0.372E-01
   1.112  0.371E-01  0.371E-01
   1.122  0.370E-01  0.370E-01
   1.132  0.369E-01  0.369E-01
   1.142  0.368E-01  0.368E-01
   1.152  0.368E-01  0.368E-01
   1.162  0.367E-01  0.367E-01
   1.172  0.367E-01  0.367E-01
   1.182  0.366E-01  0.366E-01
   1.192  0.366E-01  0.366E-01
   1.202  0.366E-01  0.366E-01
   1.212  0.366E-01  0.366E-01
   1.222  0.365E-01  0.365E-01
   1.232  0.365E-01  0.365E-01
   1.242  0.364E-01  0.364E-01
   1.252  0.364E-01  0.364E-01
   1.262  0.363E-01  0.363E-01
   1.272  0.362E-01  0.362E-01
   1.282  0.362E-01  0.362E-01
   1.292  0.361E-01  0.361E-01
   1.302  0.360E-01  0.360E-01
   1.312  0.359E-01  0.359E-01
   1.322  0.359E-01  0.359E-01
   1.332  0.358E-01  0.358E-01
   1.342  0.358E-01  0.358E-01
   1.352  0.358E-01  0.358E-01
   1.362  0.357E-01  0.357E-01
   1.372  0.357E-01  0.357E-01
   1.382  0.357E-01  0.357E-01
   1.392  0.357E-01  0.357E-01
   1.402  0.356E-01  0.356E-01
   1.412  0.356E-01  0.356E-01
   1.422  0.355E-01  0.355E-01
   1.432  0.355E-01  0.355E-01
   1.442  0.354E-01  0.354E-01
   1.452  0.353E-01  0.353E-01
   1.462  0.352E-01  0.352E-01
   1.472  0.351E-01  0.351E-01
   1.482  0.350E-01  0.350E-01
   1.492  0.350E-01  0.350E-01
   1.502  0.349E-01  0.349E-01
   1.512  0.349E-01  0.349E-01
   1.522  0.349E-01  0.349E-01
   1.532  0.349E-01  0.349E-01
   1.542  0.349E-01  0.349E-01
   1.552  0.349E-01  0.349E-01
   1.562  0.349E-01  0.349E-01
   1.572  0.348E-01  0.348E-01
   1.582  0.348E-01  0.348E-01
   1.592  0.347E-01  0.347E-01
   1.602  0.346E-01  0.346E-01
   1.612  0.345E-01  0.345E-01
   1.622  0.345E-01  0.345E-01
   1.632  0.344E-01  0.344E-01
   1.642  0.343E-01  0.343E-01
   1.652  0.342E-01  0.342E-01
   1.662  0.341E-01  0.341E-01
   1.672  0.341E-01  0.341E-01
   1.682  0.341E-01  0.341E-01
   1.692  0.341E-01  0.341E-01
   1.702  0.341E-01  0.341E-01
   1.712  0.341E-01  0.341E-01
   1.722  0.341E-01  0.341E-01
   1.732  0.341E-01  0.341E-01
   1.742  0.340E-01  0.340E-01
   1.752  0.340E-01  0.340E-01
   1.762  0.339E-01  0.339E-01
   1.772  0.339E-01  0.339E-01
   1.782  0.338E-01  0.338E-01
   1.792  0.337E-01  0.337E-01
   1.802  0.335E-01  0.335E-01
   1.812  0.335E-01  0.335E-01
   1.822  0.334E-01  0.334E-01
   1.832  0.333E-01  0.333E-01
   1.842  0.333E-01  0.333E-01
   1.852  0.332E-01  0.332E-01
   1.862  0.332E-01  0.332E-01
   1.872  0.332E-01  0.332E-01
   1.882  0.332E-01  0.332E-01
   1.892  0.333E-01  0.333E-01
   1.902  0.333E-01  0.333E-01
   1.912  0.333E-01  0.333E-01
   1.922  0.332E-01  0.332E-01
   1.932  0.332E-01  0.332E-01
   1.942  0.331E-01  0.331E-01
   1.952  0.330E-01  0.330E-01
   1.962  0.329E-01  0.329E-01
   1.972  0.328E-01  0.328E-01
   1.982  0.327E-01  0.327E-01
   1.992  0.326E-01  0.326E-01
   2.002  0.325E-01  0.325E-01
   2.012  0.324E-01  0.324E-01
   2.022  0.324E-01  0.324E-01
   2.032  0.324E-01  0.324E-01
   2.042  0.324E-01  0.324E-01
   2.052  0.324E-01  0.324E-01
   2.062  0.324E-01  0.324E-01
   2.072  0.325E-01  0.325E-01
   2.082  0.325E-01  0.325E-01
   2.092  0.324E-01  0.324E-01
   2.102  0.324E-01  0.324E-01
   2.112  0.324E-01  0.324E-01
   2.122  0.323E-01  0.323E-01
   2.132  0.322E-01  0.322E-01
   2.142  0.320E-01  0.320E-01
   2.152  0.319E-01  0.319E-01
   2.162  0.318E-01  0.318E-01
   2.172  0.317E-01  0.317E-01
   2.182  0.316E-01  0.316E-01
   2.192  0.316E-01  0.316E-01
   2.202  0.315E-01  0.315E-01
   2.212  0.315E-01  0.315E-01
   2.222  0.315E-01  0.315E-01
   2.232  0.316E-01  0.316E-01
   2.242  0.316E-01  0.316E-01
   2.252  0.316E-01  0.316E-01
   2.262  0.316E-01  0.316E-01
   2.272  0.316E-01  0.316E-01
   2.282  0.316E-01  0.316E-01
   2.292  0.315E-01  0.315E-01
   2.302  0.315E-01  0.315E-01
   2.312  0.313E-01  0.313E-01
   2.322  0.312E-01  0.312E-01
   2.332  0.311E-01  0.311E-01
   2.342  0.310E-01  0.310E-01
   2.352  0.308E-01  0.308E-01
   2.362  0.308E-01  0.308E-01
   2.372  0.307E-01  0.307E-01
   2.382  0.307E-01  0.307E-01
   2.392  0.307E-01  0.307E-01
   2.402  0.307E-01  0.307E-01
   2.412  0.307E-01  0.307E-01
   2.422  0.308E-01  0.308E-01
   2.432  0.308E-01  0.308E-01
   2.442  0.308E-01  0.308E-01
   2.452  0.308E-01  0.308E-01
   2.462  0.308E-01  0.308E-01
   2.472  0.307E-01  0.307E-01
   2.482  0.307E-01  0.307E-01
   2.492  0.305E-01  0.305E-01
   2.502  0.304E-01  0.304E-01
   2.512  0.303E-01  0.303E-01
   2.522  0.301E-01  0.301E-01
   2.532  0.300E-01  0.300E-01
   2.542  0.299E-01  0.299E-01
   2.552  0.298E-01  0.298E-01
   2.562  0.298E-01  0.298E-01
   2.572  0.298E-01  0.298E-01
   2.582  0.298E-01  0.298E-01
   2.592  0.298E-01  0.298E-01
   2.602  0.299E-01  0.299E-01
   2.612  0.299E-01  0.299E-01
   2.622  0.300E-01  0.300E-01
   2.632  0.300E-01  0.300E-01
   2.642  0.300E-01  0.300E-01
   2.652  0.299E-01  0.299E-01
   2.662  0.299E-01  0.299E-01
   2.672  0.298E-01  0.298E-01
   2.682  0.296E-01  0.296E-01
   2.692  0.295E-01  0.295E-01
   2.702  0.293E-01  0.293E-01
   2.712  0.292E-01  0.292E-01
   2.722  0.291E-01  0.291E-01
   2.732  0.290E-01  0.290E-01
   2.742  0.289E-01  0.289E-01
   2.752  0.289E-01  0.289E-01
   2.762  0.289E-01  0.289E-01
   2.772  0.289E-01  0.289E-01
   2.782  0.290E-01  0.290E-01
   2.792  0.290E-01  0.290E-01
   2.802  0.291E-01  0.291E-01
   2.812  0.291E-01  0.291E-01
   2.822  0.291E-01  0.291E-01
   2.832  0.291E-01  0.291E-01
   2.842  0.291E-01  0.291E-01
   2.852  0.290E-01  0.290E-01
   2.862  0.289E-01  0.289E-01
   2.872  0.287E-01  0.287E-01
   2.882  0.286E-01  0.286E-01
   2.892  0.284E-01  0.284E-01
   2.902  0.283E-01  0.283E-01
   2.912  0.282E-01  0.282E-01
   2.922  0.281E-01  0.281E-01
   2.932  0.280E-01  0.280E-01
   2.942  0.280E-01  0.280E-01
   2.952  0.280E-01  0.280E-01
   2.962  0.280E-01  0.280E-01
   2.972  0.281E-01  0.281E-01
   2.982  0.282E-01  0.282E-01
   2.992  0.282E-01  0.282E-01
   3.002  0.283E-01  0.283E-01
   3.012  0.283E-01  0.283E-01
   3.022  0.282E-01  0.282E-01
   3.032  0.282E-01  0.282E-01
   3.042  0.281E-01  0.281E-01
   3.052  0.280E-01  0.280E-01
   3.062  0.278E-01  0.278E-01
   3.072  0.277E-01  0.277E-01
   3.082  0.275E-01  0.275E-01
   3.092  0.274E-01  0.274E-01
   3.102  0.272E-01  0.272E-01
   3.112  0.271E-01  0.271E-01
   3.122  0.271E-01  0.271E-01
   3.132  0.271E-01  0.271E-01
   3.142  0.271E-01  0.271E-01
   3.152  0.271E-01  0.271E-01
   3.162  0.272E-01  0.272E-01
   3.172  0.273E-01  0.273E-01
   3.182  0.273E-01  0.273E-01
   3.192  0.274E-01  0.274E-01
   3.202  0.274E-01  0.274E-01
   3.212  0.274E-01  0.274E-01
   3.222  0.273E-01  0.273E-01
   3.232  0.272E-01  0.272E-01
   3.242  0.271E-01  0.271E-01
   3.252  0.269E-01  0.269E-01
   3.262  0.268E-01  0.268E-01
   3.272  0.266E-01  0.266E-01
   3.282  0.264E-01  0.264E-01
   3.292  0.263E-01  0.263E-01
   3.302  0.262E-01  0.262E-01
   3.312  0.262E-01  0.262E-01
   3.322  0.261E-01  0.261E-01
   3.332  0.262E-01  0.262E-01
   3.342  0.262E-01  0.262E-01
   3.352  0.263E-01  0.263E-01
   3.362  0.263E-01  0.263E-01
   3.372  0.264E-01  0.264E-01
   3.382  0.264E-01  0.264E-01
   3.392  0.265E-01  0.265E-01
   3.402  0.265E-01  0.265E-01
   3.412  0.264E-01  0.264E-01
   3.422  0.263E-01  0.263E-01
   3.432  0.262E-01  0.262E-01
   3.442  0.260E-01  0.260E-01
   3.452  0.259E-01  0.259E-01
   3.462  0.257E-01  0.257E-01
   3.472  0.255E-01  0.255E-01
   3.482  0.254E-01  0.254E-01
   3.492  0.253E-01  0.253E-01
   3.502  0.252E-01  0.252E-01
   3.512  0.252E-01  0.252E-01
   3.522  0.252E-01  0.252E-01
   3.532  0.252E-01  0.252E-01
   3.542  0.253E-01  0.253E-01
   3.552  0.254E-01  0.254E-01
   3.562  0.254E-01  0.254E-01
   3.572  0.255E-01  0.255E-01
   3.582  0.255E-01  0.255E-01
   3.592  0.255E-01  0.255E-01
   3.602  0.255E-01  0.255E-01
   3.612  0.254E-01  0.254E-01
   3.622  0.253E-01  0.253E-01
   3.632  0.251E-01  0.251E-01
   3.642  0.250E-01  0.250E-01
   3.652  0.248E-01  0.248E-01
   3.662  0.246E-01  0.246E-01
   3.672  0.245E-01  0.245E-01
   3.682  0.244E-01  0.244E-01
   3.692  0.243E-01  0.243E-01
   3.702  0.242E-01  0.242E-01
   3.712  0.242E-01  0.242E-01
   3.722  0.243E-01  0.243E-01
   3.732  0.243E-01  0.243E-01
   3.742  0.244E-01  0.244E-01
   3.752  0.245E-01  0.245E-01
   3.762  0.245E-01  0.245E-01
   3.772  0.246E-01  0.246E-01
   3.782  0.246E-01  0.246E-01
   3.792  0.245E-01  0.245E-01
   3.802  0.245E-01  0.245E-01
   3.812  0.244E-01  0.244E-01
   3.822  0.242E-01  0.242E-01
   3.832  0.241E-01  0.241E-01
   3.842  0.239E-01  0.239E-01
   3.852  0.237E-01  0.237E-01
   3.862  0.236E-01  0.236E-01
   3.872  0.234E-01  0.234E-01
   3.882  0.233E-01  0.233E-01
   3.892  0.233E-01  0.233E-01
   3.902  0.233E-01  0.233E-01
   3.912  0.233E-01  0.233E-01
   3.922  0.233E-01  0.233E-01
   3.932  0.234E-01  0.234E-01
   3.942  0.234E-01  0.234E-01
   3.952  0.235E-01  0.235E-01
   3.962  0.236E-01  0.236E-01
   3.972  0.236E-01  0.236E-01
   3.982  0.236E-01  0.236E-01
   3.992  0.235E-01  0.235E-01
   4.002  0.234E-01  0.234E-01
   4.012  0.233E-01  0.233E-01
   4.022  0.231E-01  0.231E-01
   4.032  0.230E-01  0.230E-01
   4.042  0.228E-01  0.228E-01
   4.052  0.226E-01  0.226E-01
   4.062  0.225E-01  0.225E-01
   4.072  0.224E-01  0.224E-01
   4.082  0.223E-01  0.223E-01
   4.092  0.223E-01  0.223E-01
   4.102  0.223E-01  0.223E-01
   4.112  0.223E-01  0.223E-01
   4.122  0.223E-01  0.223E-01
   4.132  0.224E-01  0.224E-01
   4.142  0.225E-01  0.225E-01
   4.152  0.225E-01  0.225E-01
   4.162  0.226E-01  0.226E-01
   4.172  0.226E-01  0.226E-01
   4.182  0.225E-01  0.225E-01
   4.192  0.224E-01  0.224E-01
   4.202  0.223E-01  0.223E-01
   4.212  0.222E-01  0.222E-01
   4.222  0.220E-01  0.220E-01
   4.232  0.219E-01  0.219E-01
   4.242  0.217E-01  0.217E-01
   4.252  0.216E-01  0.216E-01
   4.262  0.214E-01  0.214E-01
   4.272  0.213E-01  0.213E-01
   4.282  0.213E-01  0.213E-01
   4.292  0.213E-01  0.213E-01
   4.302  0.213E-01  0.213E-01
   4.312  0.213E-01  0.213E-01
   4.322  0.214E-01  0.214E-01
   4.332  0.214E-01  0.214E-01
   4.342  0.215E-01  0.215E-01
   4.352  0.215E-01  0.215E-01
   4.362  0.215E-01  0.215E-01
   4.372  0.215E-01  0.215E-01
   4.382  0.214E-01  0.214E-01
   4.392  0.213E-01  0.213E-01
   4.402  0.212E-01  0.212E-01
   4.412  0.211E-01  0.211E-01
   4.422  0.209E-01  0.209E-01
   4.432  0.208E-01  0.208E-01
   4.442  0.206E-01  0.206E-01
   4.452  0.205E-01  0.205E-01
   4.462  0.204E-01  0.204E-01
   4.472  0.203E-01  0.203E-01
   4.482  0.202E-01  0.202E-01
   4.492  0.202E-01  0.202E-01
   4.502  0.202E-01  0.202E-01
   4.512  0.203E-01  0.203E-01
   4.522  0.203E-01  0.203E-01
   4.532  0.204E-01  0.204E-01
   4.542  0.204E-01  0.204E-01
   4.552  0.204E-01  0.204E-01
   4.562  0.204E-01  0.204E-01
   4.572  0.204E-01  0.204E-01
   4.582  0.203E-01  0.203E-01
   4.592  0.202E-01  0.202E-01
   4.602  0.201E-01  0.201E-01
   4.612  0.199E-01  0.199E-01
   4.622  0.198E-01  0.198E-01
   4.632  0.196E-01  0.196E-01
   4.642  0.195E-01  0.195E-01
   4.652  0.194E-01  0.194E-01
   4.662  0.193E-01  0.193E-01
   4.672  0.192E-01  0.192E-01
   4.682  0.192E-01  0.192E-01
   4.692  0.192E-01  0.192E-01
   4.702  0.192E-01  0.192E-01
   4.712  0.192E-01  0.192E-01
   4.722  0.193E-01  0.193E-01
   4.732  0.193E-01  0.193E-01
   4.742  0.193E-01  0.193E-01
   4.752  0.193E-01  0.193E-01
   4.762  0.193E-01  0.193E-01
   4.772  0.192E-01  0.192E-01
   4.782  0.191E-01  0.191E-01
   4.792  0.190E-01  0.190E-01
   4.802  0.188E-01  0.188E-01
   4.812  0.187E-01  0.187E-01
   4.822  0.186E-01  0.186E-01
   4.832  0.184E-01  0.184E-01
   4.842  0.183E-01  0.183E-01
   4.852  0.182E-01  0.182E-01
   4.862  0.181E-01  0.181E-01
   4.872  0.181E-01  0.181E-01
   4.882  0.181E-01  0.181E-01
   4.892  0.181E-01  0.181E-01
   4.902  0.181E-01  0.181E-01
   4.912  0.181E-01  0.181E-01
   4.922  0.181E-01  0.181E-01
   4.932  0.181E-01  0.181E-01
   4.942  0.181E-01  0.181E-01
   4.952  0.181E-01  0.181E-01
   4.962  0.180E-01  0.180E-01
   4.972  0.180E-01  0.180E-01
   4.982  0.178E-01  0.178E-01
   4.992  0.177E-01  0.177E-01
   5.002  0.176E-01  0.176E-01
   5.012  0.175E-01  0.175E-01
   5.022  0.173E-01  0.173E-01
   5.032  0.172E-01  0.172E-01
   5.042  0.171E-01  0.171E-01
   5.052  0.170E-01  0.170E-01
   5.062  0.170E-01  0.170E-01
   5.072  0.170E-01  0.170E-01
   5.082  0.170E-01  0.170E-01
   5.092  0.170E-01  0.170E-01
   5.102  0.170E-01  0.170E-01
   5.112  0.170E-01  0.170E-01
   5.122  0.170E-01  0.170E-01
   5.132  0.169E-01  0.169E-01
   5.142  0.169E-01  0.169E-01
   5.152  0.168E-01  0.168E-01
   5.162  0.167E-01  0.167E-01
   5.172  0.166E-01  0.166E-01
   5.182  0.165E-01  0.165E-01
   5.192  0.164E-01  0.164E-01
   5.202  0.163E-01  0.163E-01
   5.212  0.162E-01  0.162E-01
   5.222  0.161E-01  0.161E-01
   5.232  0.160E-01  0.160E-01
   5.242  0.159E-01  0.159E-01
   5.252  0.158E-01  0.158E-01
   5.262  0.158E-01  0.158E-01
   5.272  0.158E-01  0.158E-01
   5.282  0.158E-01  0.158E-01
   5.292  0.157E-01  0.157E-01
   5.302  0.157E-01  0.157E-01
   5.312  0.157E-01  0.157E-01
   5.322  0.157E-01  0.157E-01
   5.332  0.156E-01  0.156E-01
   5.342  0.155E-01  0.155E-01
   5.352  0.155E-01  0.155E-01
   5.362  0.154E-01  0.154E-01
   5.372  0.153E-01  0.153E-01
   5.382  0.151E-01  0.151E-01
   5.392  0.150E-01  0.150E-01
   5.402  0.149E-01  0.149E-01
   5.412  0.148E-01  0.148E-01
   5.422  0.147E-01  0.147E-01
   5.432  0.147E-01  0.147E-01
   5.442  0.146E-01  0.146E-01
   5.452  0.146E-01  0.146E-01
   5.462  0.145E-01  0.145E-01
   5.472  0.145E-01  0.145E-01
   5.482  0.145E-01  0.145E-01
   5.492  0.144E-01  0.144E-01
   5.502  0.144E-01  0.144E-01
   5.512  0.143E-01  0.143E-01
   5.522  0.143E-01  0.143E-01
   5.532  0.142E-01  0.142E-01
   5.542  0.141E-01  0.141E-01
   5.552  0.140E-01  0.140E-01
   5.562  0.139E-01  0.139E-01
   5.572  0.138E-01  0.138E-01
   5.582  0.137E-01  0.137E-01
   5.592  0.136E-01  0.136E-01
   5.602  0.135E-01  0.135E-01
   5.612  0.134E-01  0.134E-01
   5.622  0.134E-01  0.134E-01
   5.632  0.133E-01  0.133E-01
   5.642  0.132E-01  0.132E-01
   5.652  0.132E-01  0.132E-01
   5.662  0.131E-01  0.131E-01
   5.672  0.131E-01  0.131E-01
   5.682  0.130E-01  0.130E-01
   5.692  0.129E-01  0.129E-01
   5.702  0.129E-01  0.129E-01
   5.712  0.128E-01  0.128E-01
   5.722  0.127E-01  0.127E-01
   5.732  0.126E-01  0.126E-01
   5.742  0.125E-01  0.125E-01
   5.752  0.124E-01  0.124E-01
   5.762  0.123E-01  0.123E-01
   5.772  0.122E-01  0.122E-01
   5.782  0.121E-01  0.121E-01
   5.792  0.120E-01  0.120E-01
   5.802  0.120E-01  0.120E-01
   5.812  0.119E-01  0.119E-01
   5.822  0.118E-01  0.118E-01
   5.832  0.117E-01  0.117E-01
   5.842  0.117E-01  0.117E-01
   5.852  0.116E-01  0.116E-01
   5.862  0.115E-01  0.115E-01
   5.872  0.114E-01  0.114E-01
   5.882  0.113E-01  0.113E-01
   5.892  0.112E-01  0.112E-01
   5.902  0.112E-01  0.112E-01
   5.912  0.111E-01  0.111E-01
   5.922  0.110E-01  0.110E-01
   5.932  0.109E-01  0.109E-01
   5.942  0.108E-01  0.108E-01
   5.952  0.107E-01  0.107E-01
   5.962  0.106E-01  0.106E-01
   5.972  0.105E-01  0.105E-01
   5.982  0.104E-01  0.104E-01
   5.992  0.103E-01  0.103E-01
   6.002  0.102E-01  0.102E-01
   6.012  0.101E-01  0.101E-01
   6.022  0.100E-01  0.100E-01
   6.032  0.991E-02  0.991E-02
   6.042  0.981E-02  0.981E-02
   6.052  0.971E-02  0.971E-02
   6.062  0.960E-02  0.960E-02
   6.072  0.950E-02  0.950E-02
   6.082  0.939E-02  0.939E-02
   6.092  0.928E-02  0.928E-02
   6.102  0.917E-02  0.917E-02
   6.112  0.905E-02  0.905E-02
   6.122  0.894E-02  0.894E-02
   6.132  0.883E-02  0.883E-02
   6.142  0.872E-02  0.872E-02
   6.152  0.860E-02  0.860E-02
   6.162  0.849E-02  0.849E-02
   6.172  0.837E-02  0.837E-02
   6.182  0.825E-02  0.825E-02
   6.192  0.813E-02  0.813E-02
   6.202  0.800E-02  0.800E-02
   6.212  0.787E-02  0.787E-02
   6.222  0.774E-02  0.774E-02
   6.232  0.761E-02  0.761E-02
   6.242  0.747E-02  0.747E-02
   6.252  0.733E-02  0.733E-02
   6.262  0.719E-02  0.719E-02
   6.272  0.704E-02  0.704E-02
   6.282  0.689E-02  0.689E-02
   6.292  0.674E-02  0.674E-02
   6.302  0.658E-02  0.658E-02
   6.312  0.642E-02  0.642E-02
   6.322  0.625E-02  0.625E-02
   6.332  0.608E-02  0.608E-02
   6.342  0.590E-02  0.590E-02
   6.352  0.572E-02  0.572E-02
   6.362  0.553E-02  0.553E-02
   6.372  0.534E-02  0.534E-02
   6.382  0.514E-02  0.514E-02
   6.392  0.493E-02  0.493E-02
   6.402  0.472E-02  0.472E-02
   6.412  0.450E-02  0.450E-02
   6.422  0.428E-02  0.428E-02
   6.432  0.405E-02  0.405E-02
   6.442  0.383E-02  0.383E-02
   6.452  0.360E-02  0.360E-02
   6.462  0.337E-02  0.337E-02
   6.472  0.313E-02  0.313E-02
   6.482  0.290E-02  0.290E-02
   6.492  0.268E-02  0.268E-02
   6.502  0.246E-02  0.246E-02
   6.512  0.224E-02  0.224E-02
   6.522  0.203E-02  0.203E-02
   6.532  0.183E-02  0.183E-02
   6.542  0.164E-02  0.164E-02
   6.552  0.146E-02  0.146E-02
   6.562  0.129E-02  0.129E-02
   6.572  0.113E-02  0.113E-02
   6.582  0.982E-03  0.982E-03
   6.592  0.849E-03  0.849E-03
   6.602  0.728E-03  0.728E-03
   6.612  0.620E-03  0.620E-03
   6.622  0.523E-03  0.523E-03
   6.632  0.438E-03  0.438E-03
   6.642  0.364E-03  0.364E-03
   6.652  0.300E-03  0.300E-03
   6.662  0.245E-03  0.245E-03
   6.672  0.199E-03  0.199E-03
   6.682  0.160E-03  0.160E-03
   6.692  0.127E-03  0.127E-03
   6.702  0.100E-03  0.100E-03
   6.712  0.785E-04  0.785E-04
   6.722  0.608E-04  0.608E-04
   6.732  0.467E-04  0.467E-04
   6.742  0.355E-04  0.355E-04
   6.752  0.268E-04  0.268E-04
   6.762  0.200E-04  0.200E-04
   6.772  0.148E-04  0.148E-04
   6.782  0.109E-04  0.109E-04
   6.792  0.788E-05  0.788E-05
   6.802  0.566E-05  0.566E-05
   6.812  0.403E-05  0.403E-05
   6.822  0.284E-05  0.284E-05
   6.832  0.199E-05  0.199E-05
   6.842  0.137E-05  0.137E-05
   6.852  0.940E-06  0.940E-06
   6.862  0.638E-06  0.638E-06
   6.872  0.428E-06  0.428E-06
   6.882  0.285E-06  0.285E-06
   6.892  0.187E-06  0.187E-06
   6.902  0.122E-06  0.122E-06
   6.912  0.787E-07  0.787E-07
   6.922  0.503E-07  0.503E-07
   6.932  0.318E-07  0.318E-07
   6.942  0.199E-07  0.199E-07
   6.952  0.123E-07  0.123E-07
   6.962  0.755E-08  0.755E-08
   6.972  0.458E-08  0.458E-08
   6.982  0.275E-08  0.275E-08
   6.992  0.164E-08  0.164E-08
   7.002  0.964E-09  0.964E-09
   7.012  0.561E-09  0.561E-09
   7.022  0.324E-09  0.324E-09
   7.032  0.185E-09  0.185E-09
   7.042  0.104E-09  0.104E-09
   7.052  0.583E-10  0.583E-10
   7.062  0.322E-10  0.322E-10
   7.072  0.176E-10  0.176E-10
   7.082  0.955E-11  0.955E-11
   7.092  0.512E-11  0.512E-11
   7.102  0.272E-11  0.272E-11
   7.112  0.143E-11  0.143E-11
   7.122  0.741E-12  0.741E-12
   7.132  0.381E-12  0.381E-12
   7.142  0.194E-12  0.194E-12
   7.152  0.976E-13  0.976E-13
   7.162  0.443E-13  0.443E-13
   7.172  0.219E-13  0.219E-13
   7.182  0.107E-13  0.107E-13
   7.192  0.520E-14  0.520E-14
   7.202  0.249E-14  0.249E-14
   7.212  0.342E-27  0.342E-27
   7.222  0.734E-28  0.734E-28
   7.232  0.000E+00  0.000E+00
   7.242  0.000E+00  0.000E+00
   7.252  0.000E+00  0.000E+00
   7.262  0.000E+00  0.000E+00
   7.272  0.000E+00  0.000E+00
   7.282  0.000E+00  0.000E+00
   7.292  0.000E+00  0.000E+00
   7.302  0.000E+00  0.000E+00
   7.312  0.000E+00  0.000E+00
   7.322  0.000E+00  0.000E+00
   7.332  0.165E-11  0.165E-11
   7.342  0.384E-11  0.384E-11
   7.352  0.842E-11  0.842E-11
   7.362  0.178E-10  0.178E-10
   7.372  0.366E-10  0.366E-10
   7.382  0.740E-10  0.740E-10
   7.392  0.148E-09  0.148E-09
   7.402  0.291E-09  0.291E-09
   7.412  0.567E-09  0.567E-09
   7.422  0.109E-08  0.109E-08
   7.432  0.209E-08  0.209E-08
   7.442  0.394E-08  0.394E-08
   7.452  0.737E-08  0.737E-08
   7.462  0.136E-07  0.136E-07
   7.472  0.249E-07  0.249E-07
   7.482  0.450E-07  0.450E-07
   7.492  0.806E-07  0.806E-07
   7.502  0.143E-06  0.143E-06
   7.512  0.250E-06  0.250E-06
   7.522  0.434E-06  0.434E-06
   7.532  0.744E-06  0.744E-06
   7.542  0.126E-05  0.126E-05
   7.552  0.212E-05  0.212E-05
   7.562  0.352E-05  0.352E-05
   7.572  0.579E-05  0.579E-05
   7.582  0.942E-05  0.942E-05
   7.592  0.152E-04  0.152E-04
   7.602  0.241E-04  0.241E-04
   7.612  0.380E-04  0.380E-04
   7.622  0.593E-04  0.593E-04
   7.632  0.915E-04  0.915E-04
   7.642  0.140E-03  0.140E-03
   7.652  0.211E-03  0.211E-03
   7.662  0.315E-03  0.315E-03
   7.672  0.467E-03  0.467E-03
   7.682  0.683E-03  0.683E-03
   7.692  0.989E-03  0.989E-03
   7.702  0.142E-02  0.142E-02
   7.712  0.201E-02  0.201E-02
   7.722  0.282E-02  0.282E-02
   7.732  0.392E-02  0.392E-02
   7.742  0.539E-02  0.539E-02
   7.752  0.733E-02  0.733E-02
   7.762  0.987E-02  0.987E-02
   7.772  0.132E-01  0.132E-01
   7.782  0.174E-01  0.174E-01
   7.792  0.227E-01  0.227E-01
   7.802  0.293E-01  0.293E-01
   7.812  0.374E-01  0.374E-01
   7.822  0.474E-01  0.474E-01
   7.832  0.594E-01  0.594E-01
   7.842  0.737E-01  0.737E-01
   7.852  0.905E-01  0.905E-01
   7.862  0.110E+00  0.110E+00
   7.872  0.133E+00  0.133E+00
   7.882  0.158E+00  0.158E+00
   7.892  0.187E+00  0.187E+00
   7.902  0.218E+00  0.218E+00
   7.912  0.252E+00  0.252E+00
   7.922  0.290E+00  0.290E+00
   7.932  0.329E+00  0.329E+00
   7.942  0.370E+00  0.370E+00
   7.952  0.413E+00  0.413E+00
   7.962  0.456E+00  0.456E+00
   7.972  0.499E+00  0.499E+00
   7.982  0.541E+00  0.541E+00
   7.992  0.582E+00  0.582E+00
   8.002  0.621E+00  0.621E+00
   8.012  0.657E+00  0.657E+00
   8.022  0.689E+00  0.689E+00
   8.032  0.717E+00  0.717E+00
   8.042  0.741E+00  0.741E+00
   8.052  0.760E+00  0.760E+00
   8.062  0.774E+00  0.774E+00
   8.072  0.782E+00  0.782E+00
   8.082  0.786E+00  0.786E+00
   8.092  0.786E+00  0.786E+00
   8.102  0.781E+00  0.781E+00
   8.112  0.772E+00  0.772E+00
   8.122  0.759E+00  0.759E+00
   8.132  0.744E+00  0.744E+00
   8.142  0.727E+00  0.727E+00
   8.152  0.707E+00  0.707E+00
   8.162  0.687E+00  0.687E+00
   8.172  0.666E+00  0.666E+00
   8.182  0.644E+00  0.644E+00
   8.192  0.622E+00  0.622E+00
   8.202  0.601E+00  0.601E+00
   8.212  0.580E+00  0.580E+00
   8.222  0.560E+00  0.560E+00
   8.232  0.541E+00  0.541E+00
   8.242  0.523E+00  0.523E+00
   8.252  0.506E+00  0.506E+00
   8.262  0.490E+00  0.490E+00
   8.272  0.475E+00  0.475E+00
   8.282  0.461E+00  0.461E+00
   8.292  0.448E+00  0.448E+00
   8.302  0.436E+00  0.436E+00
   8.312  0.425E+00  0.425E+00
   8.322  0.415E+00  0.415E+00
   8.332  0.405E+00  0.405E+00
   8.342  0.396E+00  0.396E+00
   8.352  0.387E+00  0.387E+00
   8.362  0.379E+00  0.379E+00
   8.372  0.372E+00  0.372E+00
   8.382  0.364E+00  0.364E+00
   8.392  0.358E+00  0.358E+00
   8.402  0.351E+00  0.351E+00
   8.412  0.345E+00  0.345E+00
   8.422  0.339E+00  0.339E+00
   8.432  0.334E+00  0.334E+00
   8.442  0.328E+00  0.328E+00
   8.452  0.323E+00  0.323E+00
   8.462  0.318E+00  0.318E+00
   8.472  0.313E+00  0.313E+00
   8.482  0.309E+00  0.309E+00
   8.492  0.304E+00  0.304E+00
   8.502  0.300E+00  0.300E+00
   8.512  0.296E+00  0.296E+00
   8.522  0.292E+00  0.292E+00
   8.532  0.288E+00  0.288E+00
   8.542  0.285E+00  0.285E+00
   8.552  0.281E+00  0.281E+00
   8.562  0.278E+00  0.278E+00
   8.572  0.274E+00  0.274E+00
   8.582  0.271E+00  0.271E+00
   8.592  0.268E+00  0.268E+00
   8.602  0.265E+00  0.265E+00
   8.612  0.262E+00  0.262E+00
   8.622  0.259E+00  0.259E+00
   8.632  0.257E+00  0.257E+00
   8.642  0.254E+00  0.254E+00
   8.652  0.251E+00  0.251E+00
   8.662  0.249E+00  0.249E+00
   8.672  0.246E+00  0.246E+00
   8.682  0.244E+00  0.244E+00
   8.692  0.242E+00  0.242E+00
   8.702  0.240E+00  0.240E+00
   8.712  0.238E+00  0.238E+00
   8.722  0.235E+00  0.235E+00
   8.732  0.234E+00  0.234E+00
   8.742  0.232E+00  0.232E+00
   8.752  0.230E+00  0.230E+00
   8.762  0.228E+00  0.228E+00
   8.772  0.227E+00  0.227E+00
   8.782  0.225E+00  0.225E+00
   8.792  0.224E+00  0.224E+00
   8.802  0.223E+00  0.223E+00
   8.812  0.222E+00  0.222E+00
   8.822  0.221E+00  0.221E+00
   8.832  0.220E+00  0.220E+00
   8.842  0.219E+00  0.219E+00
   8.852  0.218E+00  0.218E+00
   8.862  0.217E+00  0.217E+00
   8.872  0.216E+00  0.216E+00
   8.882  0.216E+00  0.216E+00
   8.892  0.215E+00  0.215E+00
   8.902  0.214E+00  0.214E+00
   8.912  0.213E+00  0.213E+00
   8.922  0.211E+00  0.211E+00
   8.932  0.210E+00  0.210E+00
   8.942  0.207E+00  0.207E+00
   8.952  0.205E+00  0.205E+00
   8.962  0.202E+00  0.202E+00
   8.972  0.198E+00  0.198E+00
   8.982  0.194E+00  0.194E+00
   8.992  0.189E+00  0.189E+00
   9.002  0.183E+00  0.183E+00
   9.012  0.176E+00  0.176E+00
   9.022  0.169E+00  0.169E+00
   9.032  0.162E+00  0.162E+00
   9.042  0.153E+00  0.153E+00
   9.052  0.144E+00  0.144E+00
   9.062  0.135E+00  0.135E+00
   9.072  0.126E+00  0.126E+00
   9.082  0.116E+00  0.116E+00
   9.092  0.106E+00  0.106E+00
   9.102  0.962E-01  0.962E-01
   9.112  0.867E-01  0.867E-01
   9.122  0.774E-01  0.774E-01
   9.132  0.686E-01  0.686E-01
   9.142  0.602E-01  0.602E-01
   9.152  0.524E-01  0.524E-01
   9.162  0.452E-01  0.452E-01
   9.172  0.387E-01  0.387E-01
   9.182  0.327E-01  0.327E-01
   9.192  0.275E-01  0.275E-01
   9.202  0.228E-01  0.228E-01
   9.212  0.188E-01  0.188E-01
   9.222  0.153E-01  0.153E-01
   9.232  0.124E-01  0.124E-01
   9.242  0.990E-02  0.990E-02
   9.252  0.784E-02  0.784E-02
   9.262  0.615E-02  0.615E-02
   9.272  0.477E-02  0.477E-02
   9.282  0.367E-02  0.367E-02
   9.292  0.279E-02  0.279E-02
   9.302  0.210E-02  0.210E-02
   9.312  0.157E-02  0.157E-02
   9.322  0.116E-02  0.116E-02
   9.332  0.845E-03  0.845E-03
   9.342  0.611E-03  0.611E-03
   9.352  0.437E-03  0.437E-03
   9.362  0.310E-03  0.310E-03
   9.372  0.217E-03  0.217E-03
   9.382  0.151E-03  0.151E-03
   9.392  0.104E-03  0.104E-03
   9.402  0.706E-04  0.706E-04
   9.412  0.478E-04  0.478E-04
   9.422  0.322E-04  0.322E-04
   9.432  0.220E-04  0.220E-04
   9.442  0.156E-04  0.156E-04
   9.452  0.120E-04  0.120E-04
   9.462  0.109E-04  0.109E-04
   9.472  0.121E-04  0.121E-04
   9.482  0.158E-04  0.158E-04
   9.492  0.228E-04  0.228E-04
   9.502  0.341E-04  0.341E-04
   9.512  0.517E-04  0.517E-04
   9.522  0.781E-04  0.781E-04
   9.532  0.117E-03  0.117E-03
   9.542  0.174E-03  0.174E-03
   9.552  0.257E-03  0.257E-03
   9.562  0.375E-03  0.375E-03
   9.572  0.540E-03  0.540E-03
   9.582  0.771E-03  0.771E-03
   9.592  0.109E-02  0.109E-02
   9.602  0.152E-02  0.152E-02
   9.612  0.211E-02  0.211E-02
   9.622  0.288E-02  0.288E-02
   9.632  0.391E-02  0.391E-02
   9.642  0.524E-02  0.524E-02
   9.652  0.695E-02  0.695E-02
   9.662  0.913E-02  0.913E-02
   9.672  0.119E-01  0.119E-01
   9.682  0.153E-01  0.153E-01
   9.692  0.194E-01  0.194E-01
   9.702  0.245E-01  0.245E-01
   9.712  0.305E-01  0.305E-01
   9.722  0.377E-01  0.377E-01
   9.732  0.461E-01  0.461E-01
   9.742  0.558E-01  0.558E-01
   9.752  0.668E-01  0.668E-01
   9.762  0.793E-01  0.793E-01
   9.772  0.931E-01  0.931E-01
   9.782  0.108E+00  0.108E+00
   9.792  0.125E+00  0.125E+00
   9.802  0.142E+00  0.142E+00
   9.812  0.161E+00  0.161E+00
   9.822  0.180E+00  0.180E+00
   9.832  0.199E+00  0.199E+00
   9.842  0.219E+00  0.219E+00
   9.852  0.238E+00  0.238E+00
   9.862  0.257E+00  0.257E+00
   9.872  0.274E+00  0.274E+00
   9.882  0.291E+00  0.291E+00
   9.892  0.306E+00  0.306E+00
   9.902  0.319E+00  0.319E+00
   9.912  0.329E+00  0.329E+00
   9.922  0.338E+00  0.338E+00
   9.932  0.344E+00  0.344E+00
   9.942  0.348E+00  0.348E+00
   9.952  0.349E+00  0.349E+00
   9.962  0.349E+00  0.349E+00
   9.972  0.346E+00  0.346E+00
   9.982  0.341E+00  0.341E+00
   9.992  0.335E+00  0.335E+00
  10.002  0.327E+00  0.327E+00
  10.012  0.318E+00  0.318E+00
  10.022  0.308E+00  0.308E+00
  10.032  0.298E+00  0.298E+00
  10.042  0.288E+00  0.288E+00
  10.052  0.277E+00  0.277E+00
  10.062  0.266E+00  0.266E+00
  10.072  0.256E+00  0.256E+00
  10.082  0.245E+00  0.245E+00
  10.092  0.236E+00  0.236E+00
  10.102  0.226E+00  0.226E+00
  10.112  0.218E+00  0.218E+00
  10.122  0.210E+00  0.210E+00
  10.132  0.202E+00  0.202E+00
  10.142  0.195E+00  0.195E+00
  10.152  0.189E+00  0.189E+00
  10.162  0.183E+00  0.183E+00
  10.172  0.177E+00  0.177E+00
  10.182  0.172E+00  0.172E+00
  10.192  0.167E+00  0.167E+00
  10.202  0.163E+00  0.163E+00
  10.212  0.159E+00  0.159E+00
  10.222  0.155E+00  0.155E+00
  10.232  0.152E+00  0.152E+00
  10.242  0.149E+00  0.149E+00
  10.252  0.146E+00  0.146E+00
  10.262  0.143E+00  0.143E+00
  10.272  0.140E+00  0.140E+00
  10.282  0.138E+00  0.138E+00
  10.292  0.135E+00  0.135E+00
  10.302  0.133E+00  0.133E+00
  10.312  0.131E+00  0.131E+00
  10.322  0.129E+00  0.129E+00
  10.332  0.127E+00  0.127E+00
  10.342  0.125E+00  0.125E+00
  10.352  0.123E+00  0.123E+00
  10.362  0.121E+00  0.121E+00
  10.372  0.120E+00  0.120E+00
  10.382  0.118E+00  0.118E+00
  10.392  0.117E+00  0.117E+00
  10.402  0.115E+00  0.115E+00
  10.412  0.114E+00  0.114E+00
  10.422  0.112E+00  0.112E+00
  10.432  0.111E+00  0.111E+00
  10.442  0.110E+00  0.110E+00
  10.452  0.108E+00  0.108E+00
  10.462  0.107E+00  0.107E+00
  10.472  0.106E+00  0.106E+00
  10.482  0.105E+00  0.105E+00
  10.492  0.104E+00  0.104E+00
  10.502  0.103E+00  0.103E+00
  10.512  0.102E+00  0.102E+00
  10.522  0.101E+00  0.101E+00
  10.532  0.999E-01  0.999E-01
  10.542  0.989E-01  0.989E-01
  10.552  0.980E-01  0.980E-01
  10.562  0.970E-01  0.970E-01
  10.572  0.961E-01  0.961E-01
  10.582  0.953E-01  0.953E-01
  10.592  0.945E-01  0.945E-01
  10.602  0.937E-01  0.937E-01
  10.612  0.929E-01  0.929E-01
  10.622  0.922E-01  0.922E-01
  10.632  0.915E-01  0.915E-01
  10.642  0.909E-01  0.909E-01
  10.652  0.902E-01  0.902E-01
  10.662  0.896E-01  0.896E-01
  10.672  0.889E-01  0.889E-01
  10.682  0.882E-01  0.882E-01
  10.692  0.876E-01  0.876E-01
  10.702  0.869E-01  0.869E-01
  10.712  0.862E-01  0.862E-01
  10.722  0.856E-01  0.856E-01
  10.732  0.849E-01  0.849E-01
  10.742  0.843E-01  0.843E-01
  10.752  0.837E-01  0.837E-01
  10.762  0.832E-01  0.832E-01
  10.772  0.827E-01  0.827E-01
  10.782  0.822E-01  0.822E-01
  10.792  0.818E-01  0.818E-01
  10.802  0.813E-01  0.813E-01
  10.812  0.809E-01  0.809E-01
  10.822  0.805E-01  0.805E-01
  10.832  0.801E-01  0.801E-01
  10.842  0.796E-01  0.796E-01
  10.852  0.792E-01  0.792E-01
  10.862  0.787E-01  0.787E-01
  10.872  0.781E-01  0.781E-01
  10.882  0.776E-01  0.776E-01
  10.892  0.771E-01  0.771E-01
  10.902  0.766E-01  0.766E-01
  10.912  0.761E-01  0.761E-01
  10.922  0.757E-01  0.757E-01
  10.932  0.753E-01  0.753E-01
  10.942  0.749E-01  0.749E-01
  10.952  0.746E-01  0.746E-01
  10.962  0.743E-01  0.743E-01
  10.972  0.741E-01  0.741E-01
  10.982  0.738E-01  0.738E-01
  10.992  0.736E-01  0.736E-01
  11.002  0.733E-01  0.733E-01
  11.012  0.730E-01  0.730E-01
  11.022  0.726E-01  0.726E-01
  11.032  0.722E-01  0.722E-01
  11.042  0.718E-01  0.718E-01
  11.052  0.714E-01  0.714E-01
  11.062  0.709E-01  0.709E-01
  11.072  0.705E-01  0.705E-01
  11.082  0.701E-01  0.701E-01
  11.092  0.697E-01  0.697E-01
  11.102  0.694E-01  0.694E-01
  11.112  0.691E-01  0.691E-01
  11.122  0.689E-01  0.689E-01
  11.132  0.687E-01  0.687E-01
  11.142  0.686E-01  0.686E-01
  11.152  0.684E-01  0.684E-01
  11.162  0.683E-01  0.683E-01
  11.172  0.681E-01  0.681E-01
  11.182  0.679E-01  0.679E-01
  11.192  0.677E-01  0.677E-01
  11.202  0.674E-01  0.674E-01
  11.212  0.671E-01  0.671E-01
  11.222  0.667E-01  0.667E-01
  11.232  0.663E-01  0.663E-01
  11.242  0.659E-01  0.659E-01
  11.252  0.655E-01  0.655E-01
  11.262  0.652E-01  0.652E-01
  11.272  0.649E-01  0.649E-01
  11.282  0.646E-01  0.646E-01
  11.292  0.644E-01  0.644E-01
  11.302  0.643E-01  0.643E-01
  11.312  0.642E-01  0.642E-01
  11.322  0.641E-01  0.641E-01
  11.332  0.640E-01  0.640E-01
  11.342  0.639E-01  0.639E-01
  11.352  0.639E-01  0.639E-01
  11.362  0.637E-01  0.637E-01
  11.372  0.635E-01  0.635E-01
  11.382  0.633E-01  0.633E-01
  11.392  0.630E-01  0.630E-01
  11.402  0.627E-01  0.627E-01
  11.412  0.623E-01  0.623E-01
  11.422  0.620E-01  0.620E-01
  11.432  0.616E-01  0.616E-01
  11.442  0.613E-01  0.613E-01
  11.452  0.610E-01  0.610E-01
  11.462  0.608E-01  0.608E-01
  11.472  0.607E-01  0.607E-01
  11.482  0.606E-01  0.606E-01
  11.492  0.605E-01  0.605E-01
  11.502  0.605E-01  0.605E-01
  11.512  0.605E-01  0.605E-01
  11.522  0.605E-01  0.605E-01
  11.532  0.604E-01  0.604E-01
  11.542  0.603E-01  0.603E-01
  11.552  0.602E-01  0.602E-01
  11.562  0.600E-01  0.600E-01
  11.572  0.598E-01  0.598E-01
  11.582  0.595E-01  0.595E-01
  11.592  0.592E-01  0.592E-01
  11.602  0.588E-01  0.588E-01
  11.612  0.585E-01  0.585E-01
  11.622  0.582E-01  0.582E-01
  11.632  0.580E-01  0.580E-01
  11.642  0.577E-01  0.577E-01
  11.652  0.576E-01  0.576E-01
  11.662  0.575E-01  0.575E-01
  11.672  0.575E-01  0.575E-01
  11.682  0.575E-01  0.575E-01
  11.692  0.575E-01  0.575E-01
  11.702  0.575E-01  0.575E-01
  11.712  0.575E-01  0.575E-01
  11.722  0.575E-01  0.575E-01
  11.732  0.574E-01  0.574E-01
  11.742  0.573E-01  0.573E-01
  11.752  0.571E-01  0.571E-01
  11.762  0.568E-01  0.568E-01
  11.772  0.565E-01  0.565E-01
  11.782  0.562E-01  0.562E-01
  11.792  0.559E-01  0.559E-01
  11.802  0.556E-01  0.556E-01
  11.812  0.554E-01  0.554E-01
  11.822  0.552E-01  0.552E-01
  11.832  0.551E-01  0.551E-01
  11.842  0.550E-01  0.550E-01
  11.852  0.549E-01  0.549E-01
  11.862  0.550E-01  0.550E-01
  11.872  0.550E-01  0.550E-01
  11.882  0.550E-01  0.550E-01
  11.892  0.551E-01  0.551E-01
  11.902  0.551E-01  0.551E-01
  11.912  0.550E-01  0.550E-01
  11.922  0.549E-01  0.549E-01
  11.932  0.548E-01  0.548E-01
  11.942  0.546E-01  0.546E-01
  11.952  0.543E-01  0.543E-01
  11.962  0.541E-01  0.541E-01
  11.972  0.538E-01  0.538E-01
  11.982  0.535E-01  0.535E-01
  11.992  0.532E-01  0.532E-01
  12.002  0.530E-01  0.530E-01
  12.012  0.529E-01  0.529E-01
  12.022  0.528E-01  0.528E-01
  12.032  0.528E-01  0.528E-01
  12.042  0.528E-01  0.528E-01
  12.052  0.528E-01  0.528E-01
  12.062  0.529E-01  0.529E-01
  12.072  0.529E-01  0.529E-01
  12.082  0.530E-01  0.530E-01
  12.092  0.529E-01  0.529E-01
  12.102  0.529E-01  0.529E-01
  12.112  0.528E-01  0.528E-01
  12.122  0.526E-01  0.526E-01
  12.132  0.524E-01  0.524E-01
  12.142  0.522E-01  0.522E-01
  12.152  0.519E-01  0.519E-01
  12.162  0.516E-01  0.516E-01
  12.172  0.514E-01  0.514E-01
  12.182  0.512E-01  0.512E-01
  12.192  0.510E-01  0.510E-01
  12.202  0.509E-01  0.509E-01
  12.212  0.509E-01  0.509E-01
  12.222  0.509E-01  0.509E-01
  12.232  0.509E-01  0.509E-01
  12.242  0.510E-01  0.510E-01
  12.252  0.510E-01  0.510E-01
  12.262  0.511E-01  0.511E-01
  12.272  0.511E-01  0.511E-01
  12.282  0.511E-01  0.511E-01
  12.292  0.510E-01  0.510E-01
  12.302  0.509E-01  0.509E-01
  12.312  0.507E-01  0.507E-01
  12.322  0.505E-01  0.505E-01
  12.332  0.503E-01  0.503E-01
  12.342  0.500E-01  0.500E-01
  12.352  0.498E-01  0.498E-01
  12.362  0.496E-01  0.496E-01
  12.372  0.494E-01  0.494E-01
  12.382  0.493E-01  0.493E-01
  12.392  0.492E-01  0.492E-01
  12.402  0.492E-01  0.492E-01
  12.412  0.492E-01  0.492E-01
  12.422  0.493E-01  0.493E-01
  12.432  0.493E-01  0.493E-01
  12.442  0.494E-01  0.494E-01
  12.452  0.494E-01  0.494E-01
  12.462  0.494E-01  0.494E-01
  12.472  0.494E-01  0.494E-01
  12.482  0.493E-01  0.493E-01
  12.492  0.492E-01  0.492E-01
  12.502  0.490E-01  0.490E-01
  12.512  0.488E-01  0.488E-01
  12.522  0.485E-01  0.485E-01
  12.532  0.483E-01  0.483E-01
  12.542  0.481E-01  0.481E-01
  12.552  0.480E-01  0.480E-01
  12.562  0.479E-01  0.479E-01
  12.572  0.478E-01  0.478E-01
  12.582  0.478E-01  0.478E-01
  12.592  0.478E-01  0.478E-01
  12.602  0.478E-01  0.478E-01
  12.612  0.479E-01  0.479E-01
  12.622  0.479E-01  0.479E-01
  12.632  0.480E-01  0.480E-01
  12.642  0.480E-01  0.480E-01
  12.652  0.479E-01  0.479E-01
  12.662  0.479E-01  0.479E-01
  12.672  0.477E-01  0.477E-01
  12.682  0.476E-01  0.476E-01
  12.692  0.474E-01  0.474E-01
  12.702  0.472E-01  0.472E-01
  12.712  0.470E-01  0.470E-01
  12.722  0.468E-01  0.468E-01
  12.732  0.467E-01  0.467E-01
  12.742  0.466E-01  0.466E-01
  12.752  0.465E-01  0.465E-01
  12.762  0.465E-01  0.465E-01
  12.772  0.465E-01  0.465E-01
  12.782  0.465E-01  0.465E-01
  12.792  0.465E-01  0.465E-01
  12.802  0.466E-01  0.466E-01
  12.812  0.466E-01  0.466E-01
  12.822  0.466E-01  0.466E-01
  12.832  0.466E-01  0.466E-01
  12.842  0.466E-01  0.466E-01
  12.852  0.465E-01  0.465E-01
  12.862  0.463E-01  0.463E-01
  12.872  0.462E-01  0.462E-01
  12.882  0.460E-01  0.460E-01
  12.892  0.458E-01  0.458E-01
  12.902  0.457E-01  0.457E-01
  12.912  0.455E-01  0.455E-01
  12.922  0.454E-01  0.454E-01
  12.932  0.454E-01  0.454E-01
  12.942  0.453E-01  0.453E-01
  12.952  0.453E-01  0.453E-01
  12.962  0.453E-01  0.453E-01
  12.972  0.454E-01  0.454E-01
  12.982  0.454E-01  0.454E-01
  12.992  0.455E-01  0.455E-01
  13.002  0.455E-01  0.455E-01
  13.012  0.454E-01  0.454E-01
  13.022  0.454E-01  0.454E-01
  13.032  0.453E-01  0.453E-01
  13.042  0.452E-01  0.452E-01
  13.052  0.450E-01  0.450E-01
  13.062  0.449E-01  0.449E-01
  13.072  0.448E-01  0.448E-01
  13.082  0.446E-01  0.446E-01
  13.092  0.445E-01  0.445E-01
  13.102  0.444E-01  0.444E-01
  13.112  0.444E-01  0.444E-01
  13.122  0.443E-01  0.443E-01
  13.132  0.443E-01  0.443E-01
  13.142  0.444E-01  0.444E-01
  13.152  0.444E-01  0.444E-01
  13.162  0.444E-01  0.444E-01
  13.172  0.445E-01  0.445E-01
  13.182  0.445E-01  0.445E-01
  13.192  0.444E-01  0.444E-01
  13.202  0.444E-01  0.444E-01
  13.212  0.443E-01  0.443E-01
  13.222  0.442E-01  0.442E-01
  13.232  0.441E-01  0.441E-01
  13.242  0.440E-01  0.440E-01
  13.252  0.439E-01  0.439E-01
  13.262  0.438E-01  0.438E-01
  13.272  0.437E-01  0.437E-01
  13.282  0.436E-01  0.436E-01
  13.292  0.436E-01  0.436E-01
  13.302  0.436E-01  0.436E-01
  13.312  0.436E-01  0.436E-01
  13.322  0.436E-01  0.436E-01
  13.332  0.436E-01  0.436E-01
  13.342  0.436E-01  0.436E-01
  13.352  0.436E-01  0.436E-01
  13.362  0.436E-01  0.436E-01
  13.372  0.436E-01  0.436E-01
  13.382  0.436E-01  0.436E-01
  13.392  0.435E-01  0.435E-01
  13.402  0.434E-01  0.434E-01
  13.412  0.433E-01  0.433E-01
  13.422  0.432E-01  0.432E-01
  13.432  0.431E-01  0.431E-01
  13.442  0.431E-01  0.431E-01
  13.452  0.430E-01  0.430E-01
  13.462  0.430E-01  0.430E-01
  13.472  0.430E-01  0.430E-01
  13.482  0.430E-01  0.430E-01
  13.492  0.430E-01  0.430E-01
  13.502  0.430E-01  0.430E-01
  13.512  0.431E-01  0.431E-01
  13.522  0.431E-01  0.431E-01
  13.532  0.431E-01  0.431E-01
  13.542  0.431E-01  0.431E-01
  13.552  0.430E-01  0.430E-01
  13.562  0.430E-01  0.430E-01
  13.572  0.430E-01  0.430E-01
  13.582  0.429E-01  0.429E-01
  13.592  0.429E-01  0.429E-01
  13.602  0.428E-01  0.428E-01
  13.612  0.428E-01  0.428E-01
  13.622  0.428E-01  0.428E-01
  13.632  0.428E-01  0.428E-01
  13.642  0.428E-01  0.428E-01
  13.652  0.428E-01  0.428E-01
  13.662  0.428E-01  0.428E-01
  13.672  0.429E-01  0.429E-01
  13.682  0.429E-01  0.429E-01
  13.692  0.429E-01  0.429E-01
  13.702  0.429E-01  0.429E-01
  13.712  0.429E-01  0.429E-01
  13.722  0.429E-01  0.429E-01
  13.732  0.429E-01  0.429E-01
  13.742  0.429E-01  0.429E-01
  13.752  0.429E-01  0.429E-01
  13.762  0.430E-01  0.430E-01
  13.772  0.430E-01  0.430E-01
  13.782  0.430E-01  0.430E-01
  13.792  0.430E-01  0.430E-01
  13.802  0.431E-01  0.431E-01
  13.812  0.431E-01  0.431E-01
  13.822  0.432E-01  0.432E-01
  13.832  0.433E-01  0.433E-01
  13.842  0.433E-01  0.433E-01
  13.852  0.434E-01  0.434E-01
  13.862  0.435E-01  0.435E-01
  13.872  0.436E-01  0.436E-01
  13.882  0.437E-01  0.437E-01
  13.892  0.439E-01  0.439E-01
  13.902  0.440E-01  0.440E-01
  13.912  0.442E-01  0.442E-01
  13.922  0.444E-01  0.444E-01
  13.932  0.447E-01  0.447E-01
  13.942  0.450E-01  0.450E-01
  13.952  0.454E-01  0.454E-01
  13.962  0.458E-01  0.458E-01
  13.972  0.464E-01  0.464E-01
  13.982  0.470E-01  0.470E-01
  13.992  0.478E-01  0.478E-01
  14.002  0.487E-01  0.487E-01
  14.012  0.498E-01  0.498E-01
  14.022  0.510E-01  0.510E-01
  14.032  0.524E-01  0.524E-01
  14.042  0.539E-01  0.539E-01
  14.052  0.557E-01  0.557E-01
  14.062  0.577E-01  0.577E-01
  14.072  0.599E-01  0.599E-01
  14.082  0.622E-01  0.622E-01
  14.092  0.648E-01  0.648E-01
  14.102  0.676E-01  0.676E-01
  14.112  0.705E-01  0.705E-01
  14.122  0.736E-01  0.736E-01
  14.132  0.769E-01  0.769E-01
  14.142  0.802E-01  0.802E-01
  14.152  0.835E-01  0.835E-01
  14.162  0.869E-01  0.869E-01
  14.172  0.902E-01  0.902E-01
  14.182  0.934E-01  0.934E-01
  14.192  0.965E-01  0.965E-01
  14.202  0.995E-01  0.995E-01
  14.212  0.102E+00  0.102E+00
  14.222  0.105E+00  0.105E+00
  14.232  0.107E+00  0.107E+00
  14.242  0.108E+00  0.108E+00
  14.252  0.109E+00  0.109E+00
  14.262  0.110E+00  0.110E+00
  14.272  0.110E+00  0.110E+00
  14.282  0.110E+00  0.110E+00
  14.292  0.109E+00  0.109E+00
  14.302  0.108E+00  0.108E+00
  14.312  0.105E+00  0.105E+00
  14.322  0.103E+00  0.103E+00
  14.332  0.995E-01  0.995E-01
  14.342  0.957E-01  0.957E-01
  14.352  0.914E-01  0.914E-01
  14.362  0.867E-01  0.867E-01
  14.372  0.816E-01  0.816E-01
  14.382  0.763E-01  0.763E-01
  14.392  0.707E-01  0.707E-01
  14.402  0.650E-01  0.650E-01
  14.412  0.593E-01  0.593E-01
  14.422  0.537E-01  0.537E-01
  14.432  0.481E-01  0.481E-01
  14.442  0.428E-01  0.428E-01
  14.452  0.377E-01  0.377E-01
  14.462  0.329E-01  0.329E-01
  14.472  0.285E-01  0.285E-01
  14.482  0.244E-01  0.244E-01
  14.492  0.207E-01  0.207E-01
  14.502  0.175E-01  0.175E-01
  14.512  0.145E-01  0.145E-01
  14.522  0.120E-01  0.120E-01
  14.532  0.981E-02  0.981E-02
  14.542  0.794E-02  0.794E-02
  14.552  0.636E-02  0.636E-02
  14.562  0.505E-02  0.505E-02
  14.572  0.397E-02  0.397E-02
  14.582  0.309E-02  0.309E-02
  14.592  0.238E-02  0.238E-02
  14.602  0.181E-02  0.181E-02
  14.612  0.137E-02  0.137E-02
  14.622  0.102E-02  0.102E-02
  14.632  0.754E-03  0.754E-03
  14.642  0.552E-03  0.552E-03
  14.652  0.400E-03  0.400E-03
  14.662  0.286E-03  0.286E-03
  14.672  0.203E-03  0.203E-03
  14.682  0.143E-03  0.143E-03
  14.692  0.991E-04  0.991E-04
  14.702  0.682E-04  0.682E-04
  14.712  0.464E-04  0.464E-04
  14.722  0.312E-04  0.312E-04
  14.732  0.208E-04  0.208E-04
  14.742  0.137E-04  0.137E-04
  14.752  0.895E-05  0.895E-05
  14.762  0.578E-05  0.578E-05
  14.772  0.369E-05  0.369E-05
  14.782  0.234E-05  0.234E-05
  14.792  0.146E-05  0.146E-05
  14.802  0.905E-06  0.905E-06
  14.812  0.554E-06  0.554E-06
  14.822  0.336E-06  0.336E-06
  14.832  0.201E-06  0.201E-06
  14.842  0.120E-06  0.120E-06
  14.852  0.702E-07  0.702E-07
  14.862  0.408E-07  0.408E-07
  14.872  0.234E-07  0.234E-07
  14.882  0.133E-07  0.133E-07
  14.892  0.750E-08  0.750E-08
  14.902  0.418E-08  0.418E-08
  14.912  0.230E-08  0.230E-08
  14.922  0.125E-08  0.125E-08
  14.932  0.677E-09  0.677E-09
  14.942  0.361E-09  0.361E-09
  14.952  0.191E-09  0.191E-09
  14.962  0.100E-09  0.100E-09
  14.972  0.519E-10  0.519E-10
  14.982  0.268E-10  0.268E-10
  14.992  0.138E-10  0.138E-10
  15.002  0.711E-11  0.711E-11
  15.012  0.372E-11  0.372E-11
  15.022  0.195E-11  0.195E-11
  15.032  0.109E-11  0.109E-11
  15.042  0.678E-12  0.678E-12
  15.052  0.411E-12  0.411E-12
  15.062  0.273E-12  0.273E-12
  15.072  0.251E-12  0.251E-12
  15.082  0.233E-12  0.233E-12
  15.092  0.219E-12  0.219E-12
  15.102  0.208E-12  0.208E-12
  15.112  0.200E-12  0.200E-12
  15.122  0.194E-12  0.194E-12
  15.132  0.190E-12  0.190E-12
  15.142  0.188E-12  0.188E-12
  15.152  0.188E-12  0.188E-12
  15.162  0.188E-12  0.188E-12
  15.172  0.188E-12  0.188E-12
  15.182  0.188E-12  0.188E-12
  15.192  0.188E-12  0.188E-12
  15.202  0.188E-12  0.188E-12
  15.212  0.187E-12  0.187E-12
  15.222  0.185E-12  0.185E-12
  15.232  0.183E-12  0.183E-12
  15.242  0.179E-12  0.179E-12
  15.252  0.175E-12  0.175E-12
  15.262  0.170E-12  0.170E-12
  15.272  0.165E-12  0.165E-12
  15.282  0.159E-12  0.159E-12
  15.292  0.153E-12  0.153E-12
  15.302  0.148E-12  0.148E-12
  15.312  0.142E-12  0.142E-12
  15.322  0.137E-12  0.137E-12
  15.332  0.132E-12  0.132E-12
  15.342  0.128E-12  0.128E-12
  15.352  0.124E-12  0.124E-12
  15.362  0.122E-12  0.122E-12
  15.372  0.120E-12  0.120E-12
  15.382  0.119E-12  0.119E-12
  15.392  0.119E-12  0.119E-12
  15.402  0.120E-12  0.120E-12
  15.412  0.122E-12  0.122E-12
  15.422  0.125E-12  0.125E-12
  15.432  0.129E-12  0.129E-12
  15.442  0.133E-12  0.133E-12
  15.452  0.138E-12  0.138E-12
  15.462  0.144E-12  0.144E-12
  15.472  0.150E-12  0.150E-12
  15.482  0.156E-12  0.156E-12
  15.492  0.162E-12  0.162E-12
  15.502  0.168E-12  0.168E-12
  15.512  0.174E-12  0.174E-12
  15.522  0.179E-12  0.179E-12
  15.532  0.184E-12  0.184E-12
  15.542  0.188E-12  0.188E-12
  15.552  0.193E-12  0.193E-12
  15.562  0.197E-12  0.197E-12
  15.572  0.201E-12  0.201E-12
  15.582  0.205E-12  0.205E-12
  15.592  0.210E-12  0.210E-12
  15.602  0.217E-12  0.217E-12
  15.612  0.226E-12  0.226E-12
  15.622  0.238E-12  0.238E-12
  15.632  0.254E-12  0.254E-12
  15.642  0.276E-12  0.276E-12
  15.652  0.304E-12  0.304E-12
  15.662  0.341E-12  0.341E-12
  15.672  0.388E-12  0.388E-12
  15.682  0.448E-12  0.448E-12
  15.692  0.522E-12  0.522E-12
  15.702  0.612E-12  0.612E-12
  15.712  0.720E-12  0.720E-12
  15.722  0.849E-12  0.849E-12
  15.732  0.999E-12  0.999E-12
  15.742  0.117E-11  0.117E-11
  15.752  0.137E-11  0.137E-11
  15.762  0.159E-11  0.159E-11
  15.772  0.184E-11  0.184E-11
  15.782  0.210E-11  0.210E-11
  15.792  0.239E-11  0.239E-11
  15.802  0.269E-11  0.269E-11
  15.812  0.300E-11  0.300E-11
  15.822  0.332E-11  0.332E-11
  15.832  0.363E-11  0.363E-11
  15.842  0.394E-11  0.394E-11
  15.852  0.423E-11  0.423E-11
  15.862  0.449E-11  0.449E-11
  15.872  0.473E-11  0.473E-11
  15.882  0.493E-11  0.493E-11
  15.892  0.508E-11  0.508E-11
  15.902  0.519E-11  0.519E-11
  15.912  0.525E-11  0.525E-11
  15.922  0.526E-11  0.526E-11
  15.932  0.522E-11  0.522E-11
  15.942  0.513E-11  0.513E-11
  15.952  0.500E-11  0.500E-11
  15.962  0.484E-11  0.484E-11
  15.972  0.464E-11  0.464E-11
  15.982  0.442E-11  0.442E-11
  15.992  0.418E-11  0.418E-11
  16.002  0.393E-11  0.393E-11
  16.012  0.368E-11  0.368E-11
  16.022  0.344E-11  0.344E-11
  16.032  0.320E-11  0.320E-11
  16.042  0.299E-11  0.299E-11
  16.052  0.279E-11  0.279E-11
  16.062  0.262E-11  0.262E-11
  16.072  0.248E-11  0.248E-11
  16.082  0.236E-11  0.236E-11
  16.092  0.228E-11  0.228E-11
  16.102  0.223E-11  0.223E-11
  16.112  0.221E-11  0.221E-11
  16.122  0.222E-11  0.222E-11
  16.132  0.226E-11  0.226E-11
  16.142  0.233E-11  0.233E-11
  16.152  0.243E-11  0.243E-11
  16.162  0.255E-11  0.255E-11
  16.172  0.269E-11  0.269E-11
  16.182  0.285E-11  0.285E-11
  16.192  0.302E-11  0.302E-11
  16.202  0.321E-11  0.321E-11
  16.212  0.340E-11  0.340E-11
  16.222  0.360E-11  0.360E-11
  16.232  0.380E-11  0.380E-11
  16.242  0.400E-11  0.400E-11
  16.252  0.420E-11  0.420E-11
  16.262  0.439E-11  0.439E-11
  16.272  0.458E-11  0.458E-11
  16.282  0.477E-11  0.477E-11
  16.292  0.495E-11  0.495E-11
  16.302  0.514E-11  0.514E-11
  16.312  0.533E-11  0.533E-11
  16.322  0.553E-11  0.553E-11
  16.332  0.575E-11  0.575E-11
  16.342  0.599E-11  0.599E-11
  16.352  0.625E-11  0.625E-11
  16.362  0.654E-11  0.654E-11
  16.372  0.687E-11  0.687E-11
  16.382  0.724E-11  0.724E-11
  16.392  0.766E-11  0.766E-11
  16.402  0.814E-11  0.814E-11
  16.412  0.868E-11  0.868E-11
  16.422  0.929E-11  0.929E-11
  16.432  0.998E-11  0.998E-11
  16.442  0.108E-10  0.108E-10
  16.452  0.116E-10  0.116E-10
  16.462  0.126E-10  0.126E-10
  16.472  0.137E-10  0.137E-10
  16.482  0.149E-10  0.149E-10
  16.492  0.162E-10  0.162E-10
  16.502  0.176E-10  0.176E-10
  16.512  0.192E-10  0.192E-10
  16.522  0.208E-10  0.208E-10
  16.532  0.225E-10  0.225E-10
  16.542  0.243E-10  0.243E-10
  16.552  0.261E-10  0.261E-10
  16.562  0.278E-10  0.278E-10
  16.572  0.296E-10  0.296E-10
  16.582  0.312E-10  0.312E-10
  16.592  0.327E-10  0.327E-10
  16.602  0.339E-10  0.339E-10
  16.612  0.350E-10  0.350E-10
  16.622  0.358E-10  0.358E-10
  16.632  0.362E-10  0.362E-10
  16.642  0.364E-10  0.364E-10
  16.652  0.362E-10  0.362E-10
  16.662  0.357E-10  0.357E-10
  16.672  0.349E-10  0.349E-10
  16.682  0.338E-10  0.338E-10
  16.692  0.324E-10  0.324E-10
  16.702  0.308E-10  0.308E-10
  16.712  0.291E-10  0.291E-10
  16.722  0.272E-10  0.272E-10
  16.732  0.252E-10  0.252E-10
  16.742  0.232E-10  0.232E-10
  16.752  0.213E-10  0.213E-10
  16.762  0.194E-10  0.194E-10
  16.772  0.176E-10  0.176E-10
  16.782  0.159E-10  0.159E-10
  16.792  0.144E-10  0.144E-10
  16.802  0.131E-10  0.131E-10
  16.812  0.119E-10  0.119E-10
  16.822  0.109E-10  0.109E-10
  16.832  0.100E-10  0.100E-10
  16.842  0.932E-11  0.932E-11
  16.852  0.875E-11  0.875E-11
  16.862  0.829E-11  0.829E-11
  16.872  0.793E-11  0.793E-11
  16.882  0.765E-11  0.765E-11
  16.892  0.742E-11  0.742E-11
  16.902  0.723E-11  0.723E-11
  16.912  0.706E-11  0.706E-11
  16.922  0.690E-11  0.690E-11
  16.932  0.673E-11  0.673E-11
  16.942  0.655E-11  0.655E-11
  16.952  0.634E-11  0.634E-11
  16.962  0.611E-11  0.611E-11
  16.972  0.584E-11  0.584E-11
  16.982  0.555E-11  0.555E-11
  16.992  0.523E-11  0.523E-11
  17.002  0.489E-11  0.489E-11
  17.012  0.453E-11  0.453E-11
  17.022  0.416E-11  0.416E-11
  17.032  0.378E-11  0.378E-11
  17.042  0.340E-11  0.340E-11
  17.052  0.304E-11  0.304E-11
  17.062  0.268E-11  0.268E-11
  17.072  0.235E-11  0.235E-11
  17.082  0.203E-11  0.203E-11
  17.092  0.174E-11  0.174E-11
  17.102  0.148E-11  0.148E-11
  17.112  0.124E-11  0.124E-11
  17.122  0.103E-11  0.103E-11
  17.132  0.851E-12  0.851E-12
  17.142  0.693E-12  0.693E-12
  17.152  0.559E-12  0.559E-12
  17.162  0.446E-12  0.446E-12
  17.172  0.353E-12  0.353E-12
  17.182  0.276E-12  0.276E-12
  17.192  0.214E-12  0.214E-12
  17.202  0.164E-12  0.164E-12
  17.212  0.124E-12  0.124E-12
  17.222  0.932E-13  0.932E-13
  17.232  0.693E-13  0.693E-13
  17.242  0.510E-13  0.510E-13
  17.252  0.371E-13  0.371E-13
  17.262  0.267E-13  0.267E-13
  17.272  0.191E-13  0.191E-13
  17.282  0.135E-13  0.135E-13
  17.292  0.942E-14  0.942E-14
  17.302  0.652E-14  0.652E-14
  17.312  0.447E-14  0.447E-14
  17.322  0.303E-14  0.303E-14
  17.332  0.204E-14  0.204E-14
  17.342  0.135E-14  0.135E-14
  17.352  0.891E-15  0.891E-15
  17.362  0.580E-15  0.580E-15
  17.372  0.374E-15  0.374E-15
  17.382  0.239E-15  0.239E-15
  17.392  0.151E-15  0.151E-15
  17.402  0.947E-16  0.947E-16
  17.412  0.587E-16  0.587E-16
